#lambda/nm	C1
208.295	538
208.67	490.4
209.045	453
209.419	453
209.794	686.8
210.169	661
210.544	803
210.919	683
211.295	679
211.67	686.8
212.045	686.4
212.421	687.4
212.796	729.4
213.172	680.8
213.547	669.4
213.923	681
214.299	678.6
214.675	694.4
215.051	691.2
215.427	692.8
215.803	706
216.179	691.4
216.555	682.4
216.932	697.8
217.308	694.4
217.684	675.2
218.061	693
218.438	701
218.814	672.8
219.191	696.4
219.568	678.2
219.945	692
220.322	695.8
220.699	701.6
221.076	697.2
221.453	702.2
221.83	684.6
222.208	689.2
222.585	684.4
222.962	689.8
223.34	695.6
223.717	692.4
224.095	685.6
224.473	688.8
224.851	677
225.229	674.6
225.607	700
225.985	681.6
226.363	685.6
226.741	689.6
227.119	680.8
227.497	698.2
227.876	672.8
228.254	696.4
228.633	685.4
229.011	690.8
229.39	694.4
229.769	681.2
230.148	695.4
230.527	698.2
230.905	686.8
231.284	691
231.664	680.2
232.043	698
232.422	701.6
232.801	674.4
233.181	699.4
233.56	682.2
233.94	688
234.319	670
234.699	686
235.079	734.6
235.458	734.4
235.838	704.4
236.218	678.4
236.598	681.8
236.978	683
237.358	684.4
237.738	685.4
238.119	690.6
238.499	681.6
238.88	688.6
239.26	702.8
239.641	673.6
240.021	684.6
240.402	688.6
240.783	678.4
241.163	689.2
241.544	687.6
241.925	692.8
242.306	717
242.687	675.8
243.069	684.2
243.45	701.6
243.831	688.4
244.212	687.8
244.594	732.6
244.975	698.2
245.357	689.2
245.739	683.8
246.12	693.6
246.502	705.6
246.884	687
247.266	688.8
247.648	689.6
248.03	711.4
248.412	691.6
248.794	702.4
249.176	673.8
249.559	697.8
249.941	680.6
250.323	679.4
250.706	681.6
251.089	697.6
251.471	685.2
251.854	683.4
252.237	682.2
252.62	692
253.002	694.6
253.385	688
253.769	702.6
254.152	689.4
254.535	701.8
254.918	680
255.301	687
255.685	688.4
256.068	677.4
256.452	714
256.835	697.8
257.219	689.2
257.603	708.6
257.986	678.2
258.37	691
258.754	677.4
259.138	696.8
259.522	692.4
259.906	688.6
260.29	689.2
260.675	683.2
261.059	688.4
261.443	679.4
261.828	698
262.212	694.8
262.597	675
262.981	682
263.366	698.6
263.751	691.4
264.136	683.6
264.521	677.8
264.906	674.4
265.291	698.6
265.676	687.2
266.061	694.6
266.446	710.8
266.831	685.2
267.217	711.8
267.602	695.6
267.987	687.4
268.373	678
268.759	692.2
269.144	695.6
269.53	694.6
269.916	684.6
270.302	682.8
270.688	691.6
271.074	691
271.46	695.6
271.846	726.6
272.232	687.4
272.618	682.4
273.004	687
273.391	708.2
273.777	711.2
274.164	705
274.55	706.6
274.937	693.2
275.324	689.6
275.71	699
276.097	696
276.484	675.2
276.871	691.6
277.258	692.2
277.645	679.6
278.032	688
278.419	691.4
278.807	689.8
279.194	677.6
279.581	679
279.969	685
280.356	684.4
280.744	684.6
281.131	713.8
281.519	700
281.907	679
282.295	683.4
282.682	702
283.07	695.2
283.458	692.6
283.846	706.2
284.235	699.4
284.623	704.4
285.011	673.8
285.399	692.6
285.788	686.8
286.176	672.8
286.565	696.6
286.953	681.6
287.342	675.6
287.731	679.6
288.119	676
288.508	685.4
288.897	698.4
289.286	671.4
289.675	679
290.064	702
290.453	688
290.821	689
291.21	706.8
291.599	685.6
291.989	690
292.378	695.4
292.768	725
293.157	687.2
293.547	687
293.936	687.4
294.326	678.2
294.716	687.8
295.106	676.4
295.496	693
295.886	698.4
296.276	696.8
296.666	677.8
297.056	684.4
297.446	671.2
297.836	707.8
298.227	683.8
298.617	688.6
299.008	697
299.398	691.4
299.789	687.4
300.179	684.4
300.57	709.6
300.961	692
301.352	687.2
301.742	700.8
302.133	696.6
302.524	687
302.915	693.4
303.307	680.8
303.698	702.6
304.089	691.4
304.48	684.2
304.872	696.6
305.263	684.2
305.655	689.8
306.046	700.6
306.438	700.8
306.829	682.4
307.221	701.8
307.613	702.8
308.005	695.2
308.397	702.4
308.789	718
309.181	734.2
309.573	714.2
309.965	707.6
310.357	683.4
310.749	710.4
311.142	687.2
311.534	685
311.926	702.4
312.319	703
312.711	677.4
313.104	704.6
313.497	699.2
313.889	738
314.282	705.6
314.675	714.6
315.068	694
315.461	696.8
315.854	723.6
316.247	702.6
316.64	694.4
317.033	690
317.405	710.4
317.798	694.8
318.192	699.4
318.585	679.8
318.979	695.8
319.372	692.6
319.766	694.4
320.16	712.4
320.553	706.4
320.947	714.2
321.341	691
321.735	682.6
322.129	679.8
322.523	717.8
322.917	682.4
323.311	705
323.705	693.6
324.099	696
324.494	706.2
324.888	699.8
325.282	680.6
325.677	704.4
326.071	699.4
326.466	704.8
326.861	702.2
327.255	696
327.65	709.8
328.045	714.8
328.44	703.4
328.835	690.8
329.23	688.4
329.625	723.8
330.02	690.8
330.415	711.4
330.81	692.2
331.206	695.6
331.601	684.6
331.996	704.4
332.37	716
332.766	684.4
333.161	718
333.557	693
333.953	692.4
334.348	1082.4
334.744	686.8
335.14	692
335.536	683.8
335.932	698
336.328	684.6
336.724	698.2
337.12	691.6
337.516	696.4
337.913	699
338.309	711.4
338.705	692
339.102	705.2
339.498	694.8
339.895	701.4
340.291	678.2
340.688	692.6
341.085	673.4
341.481	690.8
341.878	686.8
342.275	721.6
342.672	685.4
343.069	691
343.466	667.8
343.842	700.4
344.239	677.4
344.636	692.6
345.033	676.8
345.431	679.6
345.828	692.4
346.225	677.6
346.623	725.6
347.02	685.6
347.418	706.2
347.816	699.8
348.213	684.8
348.611	696
349.009	684
349.407	710
349.805	677
350.203	679.6
350.601	702.8
350.999	689.4
351.397	771.8
351.795	690
352.193	700.2
352.57	702.2
352.969	710.6
353.367	679.4
353.766	681.8
354.164	677
354.563	698
354.961	679.4
355.36	678.4
355.759	684
356.158	680.6
356.557	659.6
356.956	674.8
357.355	678.6
357.754	691.8
358.153	695
358.552	715.6
358.951	684.2
359.35	699.6
359.75	677.8
360.149	672.4
360.527	667
360.926	677
361.326	684
361.726	685.2
362.125	673.8
362.525	698.8
362.925	675
363.325	679.2
363.724	692.2
364.124	682.8
364.524	678.6
364.924	680.6
365.324	694.6
365.725	671.6
366.125	687.8
366.525	688.6
366.904	672.2
367.304	658.8
367.705	702.4
368.105	689.6
368.506	686.2
368.906	686.4
369.307	677.2
369.708	688.6
370.108	669.2
370.509	697.6
370.91	674.4
371.311	680.4
371.712	679.2
372.113	683.2
372.514	668.8
372.894	676.8
373.295	673.6
373.696	697.2
374.097	686.8
374.499	719
374.9	681.6
375.301	668.6
375.703	695.2
376.105	677.6
376.506	689.6
376.908	684.6
377.309	679.4
377.711	678.4
378.113	685.6
378.493	682.4
378.895	685.4
379.297	699
379.699	666.6
380.102	688.4
380.504	691.8
380.906	677.2
381.308	711.6
381.71	682.4
382.113	692.8
382.515	692.4
382.918	685
383.299	689.2
383.701	702.8
384.104	678.4
384.507	656.4
384.909	680.2
385.312	672.2
385.715	674.2
386.118	672.6
386.521	661
386.924	699
387.327	684.4
387.709	659
388.112	665.4
388.515	685
388.918	674
389.322	681.6
389.725	676.4
390.129	713.2
390.532	695
390.936	677
391.339	675.6
391.743	686.4
392.125	672
392.529	685
392.933	683.2
393.337	682.2
393.74	680.8
394.144	675.8
394.548	675.8
394.953	678.2
395.357	679.6
395.761	679.4
396.144	679.6
396.548	679
396.952	682
397.357	684
397.761	664.6
398.166	685.2
398.57	682.8
398.975	668.8
399.379	691
399.763	737
400.168	684
400.572	679.6
400.977	672.6
401.382	698.8
401.787	682.4
402.192	698.8
402.597	696.8
403.002	663.2
403.386	699.2
403.791	702.2
404.197	678
404.602	686.2
405.007	685.6
405.413	681.4
405.818	674.8
406.224	682.4
406.608	687.4
407.014	676.8
407.42	710.2
407.825	674.8
408.231	687.4
408.637	682
409.043	693
409.449	683.2
409.834	673.8
410.24	689.8
410.646	697.4
411.052	689.6
411.458	693.8
411.865	684.8
412.271	686.2
412.677	687.6
413.062	695.2
413.469	682.8
413.875	712
414.282	701.8
414.689	696.4
415.095	686.4
415.502	687
415.888	685.6
416.294	666
416.701	730
417.108	678.6
417.515	694.8
417.923	681.8
418.33	710.2
418.715	692.8
419.123	682
419.53	681.2
419.937	688.8
420.345	703.8
420.752	692.4
421.16	713.2
421.546	689.2
421.953	701.4
422.361	675
422.769	687.4
423.177	678.8
423.585	709.6
423.992	718.8
424.379	704.4
424.787	699.4
425.195	708.8
425.603	685.8
426.011	699.4
426.419	699.6
426.806	684.4
427.214	694.8
427.623	700.4
428.031	700.8
428.44	694.8
428.848	703.4
429.235	704
429.644	687
430.053	687.6
430.461	707.8
430.87	726.8
431.279	698.4
431.666	680.2
432.075	693.4
432.484	694.4
432.893	683.2
433.302	708.4
433.711	745.6
434.099	690.8
434.508	684
434.918	687.4
435.327	694
435.737	686.6
436.125	681.2
436.534	690
436.944	687.6
437.353	701.2
437.763	701
438.173	681.2
438.561	711.4
438.971	659.6
439.381	686.6
439.791	684.6
440.201	663
440.589	688.2
440.999	696.2
441.409	693.6
441.819	665.8
442.23	689.4
442.619	693.8
443.029	680.4
443.439	683
443.85	696
444.26	699.6
444.649	692
445.06	689.8
445.471	673.6
445.881	693.6
446.292	703.6
446.682	709.4
447.092	668.6
447.503	745.2
447.914	678.2
448.325	695.4
448.715	688.4
449.126	678.6
449.537	681.6
449.948	684.8
450.338	692.4
450.75	681
451.161	684.4
451.572	696
451.984	678.4
452.374	657
452.786	685.6
453.197	694.6
453.609	688.2
453.999	669.6
454.411	673.6
454.823	693.6
455.235	679.2
455.647	680.2
456.037	686.6
456.449	665
456.862	683
457.274	690.6
457.665	664.4
458.077	691.4
458.489	716.2
458.902	677
459.293	677.4
459.705	681
460.118	676.6
460.53	683.4
460.921	677
461.334	685.2
461.747	674.4
462.16	684.8
462.551	691.6
462.964	691.8
463.377	665.4
463.79	682.6
464.182	698.2
464.595	672
465.008	681.6
465.421	687.4
465.813	677.6
466.226	685.2
466.64	679.8
467.053	727.6
467.445	687.2
467.859	691
468.272	682.8
468.686	700.4
469.078	677.2
469.492	674.4
469.906	684.2
470.298	694.6
470.712	667.4
471.126	754
471.54	667.4
471.933	672.8
472.347	665.4
472.761	672.2
473.175	671.8
473.568	671.4
473.982	669.6
474.397	677.4
474.79	673
475.204	679.4
475.619	673.6
476.033	678
476.426	677.8
476.841	671.2
477.256	704
477.649	668.2
478.064	670.6
478.479	672.2
478.872	668
479.287	658.4
479.702	672
480.118	679.2
480.511	674.6
480.927	680.6
481.342	665.4
481.736	689.4
482.151	663.4
482.566	676.4
482.96	676.4
483.376	689.6
483.792	669.4
484.186	685.4
484.602	671.8
485.017	685.6
485.412	664.8
485.827	677.8
486.243	675
486.638	699
487.054	686
487.47	701.2
487.865	666.4
488.281	671.4
488.697	664.6
489.092	668.2
489.508	662.2
489.925	687.6
490.32	664.2
490.736	684.2
491.153	679.4
491.548	689.4
491.964	683.8
492.381	664.6
492.776	678.4
493.193	671.6
493.61	677.4
494.006	681.2
494.422	678.2
494.84	665.2
495.235	675.8
495.652	667
496.069	676.2
496.465	661.6
496.883	676.8
497.3	703.4
497.696	664.2
498.113	674.8
498.509	662.6
498.927	661.2
499.344	666.6
499.741	665
500.158	683.4
500.576	688.2
500.973	673.8
501.39	669.2
501.787	652.6
502.205	679.6
502.623	655.4
503.02	666.6
503.438	664
503.856	661
504.253	677.4
504.671	679
505.068	665.8
505.486	675
505.905	694.2
506.302	664
506.72	684.8
507.118	659.4
507.536	677.2
507.955	677.6
508.352	663.2
508.771	675.8
509.169	679.8
509.587	672.8
510.006	670.6
510.404	652.4
510.823	670
511.221	678.4
511.64	671.6
512.038	692.4
512.457	676.4
512.877	673.4
513.275	667.2
513.694	667.2
514.092	676.8
514.512	679.2
514.91	673
515.33	671.2
515.749	676
516.148	661
516.568	677
516.966	672.8
517.386	670.6
517.785	667.8
518.205	672.2
518.603	659.8
519.024	667.4
519.444	676
519.843	688.2
520.263	683
520.662	672.8
521.082	665.8
521.481	679.2
521.902	668.4
522.301	674
522.722	670.6
523.121	666.2
523.542	666
523.963	666.8
524.362	680
524.783	669.8
525.183	673.2
525.604	672.2
526.003	670.4
526.425	671.6
526.824	672.4
527.246	684.6
527.646	681.8
528.067	677
528.467	673.8
528.888	678.2
529.289	667.2
529.71	676.6
530.11	670.4
530.532	664.2
530.932	662.2
531.354	664.2
531.755	705
532.176	681.2
532.577	668.4
532.999	667.6
533.4	676.4
533.822	687
534.223	671
534.645	670.2
535.046	664
535.468	674.6
535.869	693.8
536.292	664.2
536.693	715.8
537.115	670.6
537.516	665.8
537.939	671.8
538.34	693.4
538.742	678.2
539.165	675.4
539.566	667.8
539.989	665.4
540.391	673
540.814	669.4
541.216	673
541.639	665.8
542.041	680.8
542.464	663.4
542.866	657.6
543.268	661.2
543.691	674.6
544.093	685.4
544.517	691
544.919	664.4
545.343	688.6
545.745	663.8
546.147	672.8
546.571	664.8
546.974	656.4
547.398	667.8
547.8	694.2
548.224	669.4
548.627	664.6
549.03	674
549.454	656
549.857	658.6
550.281	651
550.684	662
551.087	679.6
551.512	676.8
551.915	672.2
552.34	666.8
552.743	671.4
553.146	667.8
553.571	667.6
553.975	691.6
554.399	659.8
554.803	724.6
555.207	672
555.632	666.8
556.036	676.2
556.461	668
556.865	675.2
557.268	662.6
557.694	666.6
558.098	673.4
558.502	671.2
558.927	668.4
559.332	668.2
559.736	680.8
560.162	669
560.566	665.2
560.992	676.4
561.396	666.6
561.801	666
562.227	671.6
562.631	662.2
563.036	659.6
563.462	677.4
563.867	667.6
564.272	663.6
564.698	669.8
565.103	648.2
565.508	691.8
565.935	666.2
566.34	659
566.745	680
567.172	671.4
567.577	680.2
567.982	686
568.409	675.6
568.815	656.6
569.22	679.8
569.626	675.2
570.053	653.6
570.459	670.4
570.865	673.8
571.292	670.2
571.698	677.2
572.104	653
572.531	661
572.937	677.2
573.343	664.4
573.75	664.8
574.177	669.6
574.583	677.2
574.99	670.2
575.396	669.2
575.824	663
576.231	670.8
576.637	664.8
577.065	695.6
577.472	665.8
577.879	665.2
578.286	681
578.714	664.4
579.121	668.8
579.528	672.6
579.935	679.8
580.364	671.2
580.771	648.8
581.178	651.2
581.585	661
582.014	677.2
582.421	661.6
582.829	668
583.236	677.2
583.644	660.2
584.073	664.2
584.481	663.8
584.889	658.8
585.296	671.2
585.726	667
586.134	662
586.542	665.6
586.95	686.8
587.358	649.2
587.787	667.8
588.196	651.6
588.604	655.4
589.012	664.2
589.421	646
589.851	662
590.259	658.8
590.668	666
591.076	704
591.485	658.4
591.894	657.4
592.324	685
592.733	678.8
593.142	656.4
593.551	651.6
593.96	703.2
594.369	660.8
594.8	651.2
595.209	661.8
595.618	642
596.028	662.8
596.437	656.4
596.847	666.6
597.256	656.8
597.687	678.4
598.097	671.8
598.507	653.6
598.917	667
599.327	670.6
599.736	665.2
600.146	672
600.556	664.2
600.988	682.4
601.398	661.6
601.808	674.2
602.219	652.4
602.629	669.2
603.039	675.2
603.45	695.6
603.86	664.8
604.271	685.6
604.703	673.2
605.114	664
605.525	666
605.935	671
606.346	688.4
606.757	676.2
607.168	663.2
607.579	656.2
607.99	678.4
608.402	663
608.813	673.2
609.224	654.6
609.636	653
610.047	653.8
610.48	660.8
610.892	677.2
611.303	669
611.715	663.6
612.127	653.6
612.539	664.4
612.95	667.6
613.362	653.6
613.774	656.4
614.186	648.6
614.599	665.4
615.011	675.8
615.423	658.8
615.835	654.4
616.248	650
616.66	660.6
617.073	654.2
617.485	661.8
617.898	675.8
618.311	672
618.723	661.6
619.136	696.2
619.549	680.4
619.962	695
620.375	664.4
620.788	667
621.201	660.8
621.614	674.2
622.028	665.8
622.441	656.4
622.854	676
623.268	650.8
623.681	673.6
624.095	672
624.509	684.4
624.922	676
625.336	654.4
625.728	670.6
626.142	674.8
626.556	689.4
626.97	678.4
627.384	664.2
627.799	672.8
628.213	684.6
628.627	667.4
629.041	661.8
629.456	665.6
629.87	666.6
630.285	682.6
630.699	675.8
631.093	666
631.507	665.8
631.922	660.8
632.337	687.6
632.752	662
633.167	661.2
633.582	669
633.997	658.6
634.412	668.8
634.806	663.4
635.221	656.4
635.637	675.2
636.052	657.6
636.468	667.4
636.883	689.2
637.299	664.4
637.715	650.2
638.109	671
638.525	659.2
638.941	674.2
639.357	672
639.773	679.4
640.189	659.4
640.584	670
641	658.2
641.416	648.6
641.832	659.4
642.249	666
642.665	663.4
643.06	671
643.477	676.8
643.894	648.2
644.31	657.8
644.727	663.8
645.123	658.8
645.54	653
645.957	665.6
646.374	681.2
646.77	667.2
647.187	699
647.604	661
648.021	646.6
648.439	659.6
648.835	659.2
649.252	665.6
649.67	673.6
650.088	662.6
650.484	660.4
650.902	674.4
651.32	667.2
651.738	654.2
652.134	663.4
652.552	688.2
652.971	673.2
653.389	662
653.786	680.8
654.204	684.6
654.622	671
655.019	659.8
655.438	675
655.857	661.4
656.275	672.4
656.673	651.4
657.091	744.2
657.51	669.4
657.908	676.6
658.327	680.4
658.746	648.2
659.144	662
659.563	681.4
659.982	665.8
660.38	653.8
660.8	662.8
661.219	677
661.617	660.8
662.037	668.6
662.457	684.4
662.855	654
663.275	705.8
663.695	664.2
664.094	663.2
664.514	661.8
664.934	656.2
665.333	675.8
665.753	658.8
666.152	647.4
666.572	649
666.993	672.4
667.392	660.2
667.812	668
668.212	659
668.632	666.6
669.053	661.4
669.453	670.4
669.874	670
670.273	661.2
670.694	648
671.116	668.4
671.515	673.8
671.937	659.6
672.337	660.4
672.758	655
673.158	665.8
673.58	656.6
673.98	669.8
674.402	679.6
674.824	660.2
675.224	654.6
675.646	652.2
676.047	651.2
676.469	655.8
676.869	669
677.292	664
677.693	657.2
678.115	658.2
678.516	668.8
678.939	658.6
679.34	666.4
679.762	673.6
680.164	658.8
680.586	661.8
680.988	661.8
681.411	691.6
681.812	654
682.236	650
682.637	656.6
683.061	648
683.462	669.6
683.864	649.8
684.288	659.4
684.69	650
685.114	676
685.516	680.2
685.94	648
686.342	667
686.766	653.6
687.168	661.2
687.571	675.8
687.995	658.2
688.398	650.8
688.822	662
689.225	678.6
689.628	682.4
690.052	664
690.456	676.8
690.88	666
691.284	653.2
691.687	663
692.112	655.8
692.515	654.8
692.919	668.2
693.344	658.2
693.747	657.2
694.173	648.8
694.577	674.6
694.98	655
695.406	661.4
695.81	663.4
696.214	658.6
696.64	657.2
697.044	663.4
697.448	673.8
697.874	652.6
698.279	652.8
698.684	638.2
699.11	664.4
699.514	657.4
699.919	653
700.324	644.2
700.75	662
701.156	664.4
701.561	674.8
701.987	668.2
702.393	676.2
702.798	676.4
703.203	657.4
703.63	654.8
704.036	650
704.442	665
704.847	652.8
705.274	653.8
705.68	667.6
706.086	670
706.492	653.4
706.92	654.2
707.326	668.4
707.732	658.2
708.139	657.6
708.545	651.2
708.973	651.2
709.38	657.6
709.786	649.4
710.193	669.2
710.6	663
711.028	657.6
711.435	666
711.842	659
712.249	650.2
712.656	650.6
713.064	673
713.492	660.4
713.9	660.4
714.307	662.4
714.715	659.6
715.123	662.6
715.53	665.2
715.938	673.8
716.367	657.2
716.775	650.8
717.184	643.8
717.592	648.2
718	673.2
718.408	698.4
718.816	707.4
719.225	667.2
719.633	663.8
720.042	643.4
720.472	663.6
720.881	678
721.29	658.2
721.699	650.6
722.108	669
722.517	652
722.926	656
723.335	667.6
723.744	656.6
724.154	662.6
724.563	669.4
724.973	661.4
725.382	665.2
725.792	657
726.202	647.6
726.612	678.6
727.022	655
727.432	660
779.813	657
780.223	707.2
780.634	650.6
781.044	662.8
781.454	655.6
781.865	672
782.276	646.4
782.686	668.6
783.097	652.6
783.508	656.6
783.919	666.2
784.33	662.6
784.741	676.2
785.152	643.8
785.563	637.2
785.974	648.4
786.386	669.4
786.776	662.8
787.188	671.2
787.599	640.8
788.011	670.8
788.423	654.8
788.835	646.4
789.247	651
789.659	647.8
790.071	655.2
790.483	698.6
790.874	661.4
791.286	673.2
791.699	656.2
792.111	663.8
792.524	657.2
792.937	659.8
793.349	650
793.741	651.6
794.154	646.4
794.567	677.4
794.98	661.8
795.393	644.4
795.785	675.8
796.198	661.2
796.612	666.4
797.026	656.2
797.439	638.2
797.831	658.6
798.245	645.4
798.659	651.4
799.073	652.6
799.487	644.8
799.88	657.6
800.294	659
800.708	666.2
801.123	658.8
801.516	680.2
801.93	644.6
802.345	643.8
802.76	654.8
803.153	674.6
803.568	672
803.983	663.8
804.377	657.4
804.792	646.8
805.207	639.4
805.601	658.4
806.016	706.8
806.432	644
806.826	695.4
807.242	671.8
807.658	673.4
808.052	652.2
808.468	656.2
808.884	649.4
809.279	657.8
809.695	674
810.111	689.2
810.506	669.4
810.922	682.8
811.339	655
811.734	671.4
812.151	649.2
812.546	659.6
812.963	656.6
813.38	665.2
813.776	664.8
814.193	690.8
814.589	659.2
815.006	649.4
815.402	651.6
815.82	649
816.237	656.8
816.633	662.4
817.051	646.8
817.448	659.6
817.866	642.6
818.262	669.6
818.68	649.2
819.077	649.6
819.495	658.6
819.892	696.6
820.311	649.4
820.708	657.6
821.127	646.6
821.524	663.6
821.943	659.4
822.34	675.2
822.759	655.8
823.157	658.6
823.576	671.6
823.974	665.2
824.393	775.2
824.791	643.8
825.189	647.6
825.609	645.8
826.007	651
826.427	640.2
826.826	646.2
827.246	664.2
827.644	650.8
828.043	673
828.463	648.4
828.862	669.4
829.261	657.2
829.682	643
830.081	663.4
830.502	648
830.901	656.4
831.301	661.2
831.722	644.8
832.121	651
832.521	648.6
832.943	654
833.342	647.6
833.742	645
834.164	648.2
834.564	639.8
834.965	658.2
835.386	648.2
835.787	653.8
836.188	654.4
836.588	655
837.01	657
837.411	651.8
837.812	667.6
838.213	662
838.636	658.4
839.037	722
839.438	665.8
839.84	663
840.263	656.2
840.664	653.4
841.066	654
841.468	660.2
841.891	649
842.293	669.4
842.695	664.2
843.098	666.4
843.5	653.8
843.902	669.2
844.326	650.2
844.729	662
845.131	673
845.534	655.6
845.937	661
846.34	680.6
846.764	658.8
847.167	651.4
847.571	649.4
847.974	655.8
848.377	647.8
848.781	709.2
849.184	663.4
849.588	649.6
849.992	654.4
850.396	654
850.821	676.8
851.225	652.4
851.63	652
852.034	671.4
852.438	655.8
852.843	699.4
853.247	645
853.652	656.8
854.057	678
854.462	662.4
854.867	650.4
855.272	688.4
855.677	659.4
856.082	645.4
856.487	655
