#lambda/nm	C1
208.295	538.2
208.67	488.2
209.045	460
209.419	454.8
209.794	685.6
210.169	674.2
210.544	812.2
210.919	692.6
211.295	679.8
211.67	690.6
212.045	685
212.421	676.8
212.796	736.8
213.172	683.6
213.547	688.4
213.923	685.6
214.299	679.4
214.675	692.8
215.051	688.8
215.427	694.6
215.803	708.8
216.179	689.8
216.555	680.2
216.932	698.2
217.308	686.2
217.684	689.6
218.061	686.2
218.438	700.4
218.814	676.6
219.191	690.6
219.568	680.2
219.945	680.4
220.322	685.2
220.699	700.4
221.076	697.2
221.453	701.2
221.83	682.6
222.208	687.2
222.585	687.8
222.962	693.6
223.34	695.8
223.717	688.4
224.095	685.6
224.473	693.4
224.851	683.8
225.229	672.6
225.607	703.2
225.985	676.4
226.363	692.8
226.741	684
227.119	687.4
227.497	705.6
227.876	668.8
228.254	689.6
228.633	688.8
229.011	688.4
229.39	693.4
229.769	680.4
230.148	697.4
230.527	712.6
230.905	687.2
231.284	688
231.664	679.8
232.043	698.8
232.422	695.6
232.801	675.6
233.181	693.4
233.56	686.8
233.94	691
234.319	674.6
234.699	681
235.079	739.2
235.458	725.4
235.838	708.6
236.218	675.2
236.598	665.6
236.978	678.6
237.358	684.2
237.738	679.6
238.119	690.6
238.499	677.4
238.88	677.8
239.26	698.2
239.641	676.4
240.021	680.2
240.402	681.6
240.783	681.6
241.163	682.8
241.544	680
241.925	689.2
242.306	698.4
242.687	684.6
243.069	688.6
243.45	691.2
243.831	680
244.212	687.6
244.594	723.8
244.975	689.8
245.357	688.2
245.739	674.6
246.12	684.6
246.502	698.4
246.884	684.2
247.266	684.2
247.648	689.4
248.03	717.4
248.412	689.2
248.794	692.8
249.176	684.2
249.559	694.6
249.941	680.2
250.323	681.4
250.706	693.4
251.089	693
251.471	682.8
251.854	689.8
252.237	682.8
252.62	686.2
253.002	685
253.385	683.2
253.769	705.2
254.152	686.6
254.535	705
254.918	671.4
255.301	687.6
255.685	684
256.068	678.4
256.452	712.6
256.835	701.6
257.219	694.8
257.603	697.6
257.986	685.4
258.37	688.4
258.754	679.6
259.138	699
259.522	701.4
259.906	692.2
260.29	700.4
260.675	691.8
261.059	692.8
261.443	679.6
261.828	696.2
262.212	693.2
262.597	677.2
262.981	684.2
263.366	686.6
263.751	689.4
264.136	677.4
264.521	682.8
264.906	675.2
265.291	695
265.676	685.8
266.061	691.8
266.446	706.4
266.831	690.4
267.217	709.8
267.602	687
267.987	694
268.373	686.2
268.759	697
269.144	688
269.53	693.6
269.916	690.8
270.302	687.2
270.688	694.2
271.074	693.6
271.46	709
271.846	724.6
272.232	695.8
272.618	682.6
273.004	688.6
273.391	700.2
273.777	709.6
274.164	696.4
274.55	713.4
274.937	696.2
275.324	691.2
275.71	704.8
276.097	699.4
276.484	681.4
276.871	693.2
277.258	685.2
277.645	670.8
278.032	690.2
278.419	686.8
278.807	689.2
279.194	680.8
279.581	675.6
279.969	697.8
280.356	696
280.744	684.8
281.131	724
281.519	699.4
281.907	686.4
282.295	683.4
282.682	699.8
283.07	691.6
283.458	699.4
283.846	703
284.235	698
284.623	695.4
285.011	673.6
285.399	695.8
285.788	688.2
286.176	673.6
286.565	700.4
286.953	682
287.342	680.8
287.731	684.8
288.119	683.2
288.508	683
288.897	688.2
289.286	673.4
289.675	682.2
290.064	702.6
290.453	690.4
290.821	695.8
291.21	703
291.599	685
291.989	694.8
292.378	699.6
292.768	710.4
293.157	692
293.547	711.4
293.936	693
294.326	684.4
294.716	693
295.106	687.2
295.496	699.4
295.886	703.2
296.276	684.4
296.666	681.2
297.056	683.8
297.446	677.6
297.836	706.2
298.227	691.8
298.617	695.8
299.008	710.8
299.398	696
299.789	678.4
300.179	697
300.57	703.2
300.961	693.6
301.352	685.2
301.742	690.2
302.133	686.4
302.524	692.8
302.915	690.8
303.307	685.4
303.698	700.6
304.089	700.2
304.48	682.4
304.872	696.4
305.263	694.2
305.655	687
306.046	702.6
306.438	700.8
306.829	687
307.221	706
307.613	698.2
308.005	701.2
308.397	715.2
308.789	710.8
309.181	717.8
309.573	707.2
309.965	712.2
310.357	691.2
310.749	707
311.142	687.4
311.534	684.6
311.926	699.2
312.319	695.2
312.711	686.8
313.104	704
313.497	687
313.889	739.4
314.282	706.2
314.675	721
315.068	692.4
315.461	701.2
315.854	732.2
316.247	697.6
316.64	700.4
317.033	688.2
317.405	704.6
317.798	688.4
318.192	702.8
318.585	695.8
318.979	687.4
319.372	681
319.766	697.2
320.16	704.6
320.553	714.6
320.947	700.8
321.341	688.8
321.735	686.6
322.129	680
322.523	722.2
322.917	675.6
323.311	702.6
323.705	695.6
324.099	699.2
324.494	711.4
324.888	701
325.282	698.4
325.677	712.2
326.071	699.8
326.466	710.6
326.861	698.6
327.255	716.8
327.65	709.2
328.045	716
328.44	689.8
328.835	698.6
329.23	686.8
329.625	714
330.02	679
330.415	721.4
330.81	696.2
331.206	691.6
331.601	685.4
331.996	701.2
332.37	712.6
332.766	675.8
333.161	708.4
333.557	687.4
333.953	688.6
334.348	1056.8
334.744	696.2
335.14	697.8
335.536	689.2
335.932	708.2
336.328	698.2
336.724	707.2
337.12	691.8
337.516	696.8
337.913	690.6
338.309	717.2
338.705	694.8
339.102	712.4
339.498	690.2
339.895	707.2
340.291	677
340.688	702.4
341.085	681.6
341.481	691.8
341.878	694
342.275	709.8
342.672	682.6
343.069	684.4
343.466	667.4
343.842	703
344.239	675.6
344.636	682.2
345.033	681
345.431	675.6
345.828	689.8
346.225	673.6
346.623	731.2
347.02	687.2
347.418	698.4
347.816	705.2
348.213	681.6
348.611	697
349.009	679.6
349.407	709.4
349.805	676.6
350.203	680.2
350.601	702.8
350.999	676.6
351.397	753.2
351.795	687.8
352.193	700
352.57	696.2
352.969	709.2
353.367	678.8
353.766	675.6
354.164	682.4
354.563	700.8
354.961	690.2
355.36	681.8
355.759	685
356.158	675.6
356.557	677.2
356.956	684.2
357.355	673.8
357.754	690.4
358.153	697.2
358.552	715.4
358.951	681.8
359.35	698.4
359.75	686.6
360.149	678.6
360.527	677.8
360.926	683
361.326	684.4
361.726	687.8
362.125	678.4
362.525	691.4
362.925	690
363.325	688.4
363.724	696.8
364.124	684.2
364.524	681.2
364.924	677.2
365.324	704
365.725	678.4
366.125	688.8
366.525	681.4
366.904	682.4
367.304	674.2
367.705	697
368.105	695.2
368.506	672.6
368.906	686.2
369.307	682
369.708	695
370.108	671
370.509	698.6
370.91	678.2
371.311	685.8
371.712	692.6
372.113	687
372.514	668.6
372.894	680.4
373.295	681.2
373.696	696.8
374.097	687.8
374.499	712
374.9	690.4
375.301	673.8
375.703	692.2
376.105	671
376.506	684.8
376.908	686
377.309	683.2
377.711	682.6
378.113	679
378.493	690.2
378.895	682
379.297	702.6
379.699	660.8
380.102	692.6
380.504	675.8
380.906	680.6
381.308	706
381.71	680.8
382.113	699.8
382.515	683
382.918	684.2
383.299	678.2
383.701	688.4
384.104	684.4
384.507	660.4
384.909	681
385.312	667.4
385.715	671.4
386.118	669.6
386.521	665
386.924	702.8
387.327	681.2
387.709	660.6
388.112	661.6
388.515	665.8
388.918	679
389.322	685.4
389.725	679.8
390.129	705.6
390.532	677.6
390.936	676.8
391.339	676.4
391.743	688
392.125	671
392.529	694.6
392.933	694.4
393.337	678.6
393.74	678.4
394.144	677.8
394.548	677.2
394.953	686.8
395.357	693.4
395.761	678
396.144	684.2
396.548	685.4
396.952	682.4
397.357	684
397.761	674.8
398.166	672
398.57	680.8
398.975	675.6
399.379	681.6
399.763	728
400.168	683.8
400.572	690.8
400.977	682.8
401.382	706.4
401.787	686.2
402.192	707.2
402.597	701.6
403.002	670.6
403.386	696
403.791	700.8
404.197	674.4
404.602	685
405.007	681.8
405.413	684.8
405.818	682.8
406.224	681.6
406.608	682.8
407.014	680.2
407.42	707
407.825	677.6
408.231	691.6
408.637	689
409.043	705
409.449	679.2
409.834	678.6
410.24	682.4
410.646	695.4
411.052	696.4
411.458	687.4
411.865	692
412.271	685.4
412.677	687.4
413.062	682
413.469	666.4
413.875	714
414.282	689.8
414.689	686
415.095	689.8
415.502	673.8
415.888	693.4
416.294	673.2
416.701	731.4
417.108	673.8
417.515	689
417.923	675.2
418.33	705
418.715	695
419.123	684.4
419.53	687.8
419.937	689.2
420.345	701.8
420.752	688.2
421.16	711.4
421.546	690.2
421.953	702.2
422.361	671
422.769	686.2
423.177	678.8
423.585	720.2
423.992	712.4
424.379	702.6
424.787	696.4
425.195	708.4
425.603	686.4
426.011	694.6
426.419	700.4
426.806	685
427.214	690
427.623	702.4
428.031	693.2
428.44	692.8
428.848	697.2
429.235	707.4
429.644	692
430.053	693
430.461	714.8
430.87	723.6
431.279	706.6
431.666	685
432.075	699
432.484	699.2
432.893	690.8
433.302	718.6
433.711	759.4
434.099	705.4
434.508	699.8
434.918	697.4
435.327	712.4
435.737	706.6
436.125	704.8
436.534	721.4
436.944	717.6
437.353	712.8
437.763	741.6
438.173	710.6
438.561	727.4
438.971	701
439.381	721.6
439.791	728.4
440.201	701.2
440.589	728
440.999	735.4
441.409	726.8
441.819	712.6
442.23	737.4
442.619	741.2
443.029	734.8
443.439	739.4
443.85	736.4
444.26	754.2
444.649	739
445.06	735.2
445.471	730.4
445.881	741
446.292	761.6
446.682	769.4
447.092	715.8
447.503	782.2
447.914	745.2
448.325	733.4
448.715	735
449.126	730
449.537	746
449.948	740.6
450.338	742.8
450.75	750.6
451.161	736.2
451.572	760.4
451.984	734.2
452.374	729.2
452.786	744.4
453.197	750
453.609	759.6
453.999	728
454.411	725.4
454.823	754.4
455.235	746
455.647	740.8
456.037	748.6
456.449	729.8
456.862	740.4
457.274	758
457.665	724
458.077	741.4
458.489	779.2
458.902	737
459.293	740.4
459.705	750.6
460.118	733.8
460.53	754.8
460.921	749.2
461.334	741.8
461.747	754
462.16	767.2
462.551	760.6
462.964	755.4
463.377	726
463.79	749
464.182	761
464.595	741.6
465.008	741.2
465.421	745
465.813	740
466.226	747
466.64	741.4
467.053	796.6
467.445	762.2
467.859	763.4
468.272	748.4
468.686	758.8
469.078	744
469.492	739
469.906	746.6
470.298	753.6
470.712	736
471.126	808.6
471.54	728.4
471.933	735.8
472.347	737.2
472.761	742
473.175	736
473.568	737.4
473.982	734.4
474.397	739.8
474.79	745
475.204	756
475.619	740.4
476.033	746.6
476.426	746.4
476.841	731.4
477.256	773.2
477.649	735.4
478.064	730.6
478.479	740
478.872	731.8
479.287	717
479.702	738.2
480.118	735.8
480.511	740.8
480.927	738.8
481.342	742.4
481.736	739.8
482.151	730
482.566	739.8
482.96	740
483.376	744
483.792	729.2
484.186	742.2
484.602	729.2
485.017	736.8
485.412	732.8
485.827	741.8
486.243	727.6
486.638	760.4
487.054	748.8
487.47	749
487.865	724.8
488.281	726.8
488.697	727
489.092	726.4
489.508	717.8
489.925	740
490.32	708.4
490.736	735.6
491.153	733.6
491.548	722.2
491.964	743.8
492.381	706.8
492.776	725.8
493.193	724
493.61	726.8
494.006	731.6
494.422	726
494.84	720.6
495.235	737
495.652	728.4
496.069	719.2
496.465	701.6
496.883	715.4
497.3	751.8
497.696	725.8
498.113	727.8
498.509	710.6
498.927	704.8
499.344	715.6
499.741	712
500.158	737.2
500.576	734.2
500.973	725
501.39	713.4
501.787	711.4
502.205	722.6
502.623	719.8
503.02	714
503.438	711.8
503.856	717.8
504.253	724.8
504.671	720
505.068	709.8
505.486	709.4
505.905	735.8
506.302	723.2
506.72	726
507.118	715.8
507.536	716.2
507.955	699.8
508.352	720.6
508.771	709.2
509.169	708
509.587	694.2
510.006	712.2
510.404	698.6
510.823	697.4
511.221	707
511.64	709.6
512.038	729
512.457	703.8
512.877	709.6
513.275	695.2
513.694	708.6
514.092	697
514.512	707
514.91	700.2
515.33	712.8
515.749	707.2
516.148	706
516.568	709.4
516.966	710.4
517.386	708.8
517.785	701.2
518.205	692
518.603	693.4
519.024	690.2
519.444	718.2
519.843	704
520.263	714.6
520.662	702.4
521.082	698.8
521.481	695.6
521.902	705.2
522.301	708.8
522.722	707.6
523.121	708
523.542	691.2
523.963	694.6
524.362	698
524.783	709.6
525.183	686.8
525.604	704.6
526.003	692.6
526.425	692.2
526.824	701.2
527.246	705.4
527.646	708.6
528.067	695
528.467	685.4
528.888	693.8
529.289	693.2
529.71	697
530.11	698
530.532	688.2
530.932	685.8
531.354	678.2
531.755	726.2
532.176	706
532.577	695.2
532.999	693.6
533.4	690
533.822	703.6
534.223	689
534.645	693.6
535.046	684.2
535.468	689.4
535.869	698.6
536.292	679.2
536.693	735.4
537.115	697.4
537.516	697.4
537.939	690.8
538.34	705.6
538.742	708.8
539.165	686.4
539.566	692.8
539.989	671.6
540.391	681.8
540.814	694.4
541.216	683.2
541.639	689.4
542.041	696.4
542.464	682.2
542.866	686.6
543.268	682
543.691	699.4
544.093	698
544.517	708.8
544.919	682.2
545.343	712.4
545.745	677.4
546.147	700.2
546.571	681.4
546.974	674.2
547.398	684.2
547.8	692.4
548.224	680.2
548.627	677.8
549.03	687
549.454	672.8
549.857	673.2
550.281	671.8
550.684	676.4
551.087	692
551.512	681.8
551.915	683.8
552.34	673.4
552.743	677.4
553.146	674.4
553.571	673
553.975	699.2
554.399	677.6
554.803	741
555.207	672.4
555.632	673.2
556.036	684.8
556.461	676.6
556.865	680.8
557.268	669.6
557.694	682.4
558.098	685.6
558.502	674.6
558.927	670.4
559.332	669.8
559.736	677.6
560.162	684.6
560.566	682
560.992	678.8
561.396	677.4
561.801	667.4
562.227	677.6
562.631	665.8
563.036	675.6
563.462	689.8
563.867	673.4
564.272	661.8
564.698	686.4
565.103	675.6
565.508	694.2
565.935	671.8
566.34	680.2
566.745	688.8
567.172	675.2
567.577	705.2
567.982	692
568.409	679.4
568.815	664.2
569.22	677.8
569.626	678.6
570.053	659.4
570.459	673.6
570.865	676.6
571.292	682.6
571.698	681.4
572.104	662.2
572.531	677.8
572.937	685.6
573.343	667.6
573.75	672.8
574.177	673.8
574.583	678.4
574.99	673.4
575.396	683.6
575.824	676.4
576.231	677.2
576.637	666.4
577.065	704
577.472	673
577.879	667.4
578.286	684.2
578.714	668.6
579.121	673
579.528	674.6
579.935	684.8
580.364	671
580.771	661
581.178	665.8
581.585	673.4
582.014	677.6
582.421	673.8
582.829	672.6
583.236	687.6
583.644	661.2
584.073	667.6
584.481	671.8
584.889	669.4
585.296	673
585.726	666.8
586.134	653.4
586.542	668
586.95	694.6
587.358	658.4
587.787	675.6
588.196	666.4
588.604	664.2
589.012	663.8
589.421	660.8
589.851	663.4
590.259	676
590.668	666.2
591.076	708.6
591.485	666.8
591.894	668.6
592.324	684.2
592.733	683.2
593.142	660
593.551	670.2
593.96	672.8
594.369	655.8
594.8	648.8
595.209	663.2
595.618	664.2
596.028	661.6
596.437	659.8
596.847	660.4
597.256	675.6
597.687	666.8
598.097	670
598.507	653.6
598.917	666.6
599.327	673
599.736	666.4
600.146	681.8
600.556	666
600.988	679.6
601.398	670.8
601.808	678.8
602.219	660.8
602.629	669.6
603.039	671
603.45	695.6
603.86	671.8
604.271	683
604.703	663.6
605.114	670.8
605.525	671.6
605.935	684.4
606.346	696.8
606.757	668.8
607.168	670
607.579	665.8
607.99	683
608.402	670.4
608.813	673.2
609.224	671.6
609.636	654.8
610.047	662
610.48	681
610.892	679.2
611.303	681.8
611.715	657.4
612.127	665.4
612.539	657
612.95	670
613.362	659.4
613.774	655.6
614.186	656.6
614.599	665.4
615.011	675.2
615.423	666
615.835	665
616.248	652
616.66	678.2
617.073	665.4
617.485	661.4
617.898	674.2
618.311	668.6
618.723	663
619.136	697.2
619.549	684.2
619.962	701.4
620.375	665.4
620.788	677.6
621.201	665
621.614	681
622.028	667.6
622.441	669.2
622.854	676.8
623.268	655.6
623.681	681.8
624.095	668.4
624.509	671
624.922	672.4
625.336	657.4
625.728	664.6
626.142	676.6
626.556	683.2
626.97	683.8
627.384	666.6
627.799	673
628.213	669
628.627	660
629.041	660.4
629.456	662.8
629.87	675
630.285	671.2
630.699	682.6
631.093	664
631.507	675.6
631.922	670.6
632.337	683
632.752	657.2
633.167	667.4
633.582	657.8
633.997	659.6
634.412	667.6
634.806	665.6
635.221	658.8
635.637	680
636.052	656.2
636.468	667
636.883	689.8
637.299	665.6
637.715	659.6
638.109	668
638.525	653.8
638.941	682.2
639.357	660.4
639.773	683.4
640.189	648.2
640.584	663.4
641	674.6
641.416	650.4
641.832	667.4
642.249	670.8
642.665	660.2
643.06	670.4
643.477	672.6
643.894	646.6
644.31	663
644.727	664.4
645.123	665
645.54	653.2
645.957	666.2
646.374	675.2
646.77	678.8
647.187	690.4
647.604	666.2
648.021	651.8
648.439	661.2
648.835	672.2
649.252	671.4
649.67	663.8
650.088	664.2
650.484	672.4
650.902	661.4
651.32	672
651.738	663
652.134	658.8
652.552	672.6
652.971	674
653.389	653.4
653.786	679.4
654.204	682.4
654.622	659.2
655.019	658.6
655.438	661.6
655.857	663.4
656.275	668.2
656.673	655.4
657.091	747.6
657.51	661.6
657.908	674.8
658.327	670
658.746	641.2
659.144	665.6
659.563	680.2
659.982	667.6
660.38	655.2
660.8	657.2
661.219	676.6
661.617	670.6
662.037	655.2
662.457	673.2
662.855	641.2
663.275	704.2
663.695	668
664.094	659.4
664.514	660.2
664.934	655.6
665.333	674
665.753	653
666.152	649
666.572	660.8
666.993	677.6
667.392	657
667.812	660
668.212	659.2
668.632	671.6
669.053	660.2
669.453	668.4
669.874	664.2
670.273	673
670.694	660.4
671.116	677.2
671.515	666.8
671.937	658.6
672.337	661.6
672.758	659.8
673.158	669.8
673.58	651
673.98	663
674.402	674
674.824	657.2
675.224	663
675.646	654.2
676.047	668.4
676.469	658.4
676.869	666.8
677.292	665
677.693	654.8
678.115	660.2
678.516	660.4
678.939	675.6
679.34	657.4
679.762	679.6
680.164	664.6
680.586	653.2
680.988	653.6
681.411	691.4
681.812	663
682.236	659.2
682.637	658.2
683.061	647.6
683.462	665.4
683.864	663.6
684.288	663.4
684.69	644.2
685.114	681.8
685.516	671
685.94	657
686.342	679.6
686.766	651
687.168	658.8
687.571	673.6
687.995	662.4
688.398	653.6
688.822	666.4
689.225	679
689.628	680.4
690.052	653.4
690.456	669
690.88	663.8
691.284	653.4
691.687	673.4
692.112	648
692.515	654
692.919	668.8
693.344	663.2
693.747	659.6
694.173	653.8
694.577	678.2
694.98	659
695.406	661
695.81	669.6
696.214	660.4
696.64	661.4
697.044	659.2
697.448	670.8
697.874	661.4
698.279	655.2
698.684	651
699.11	655.8
699.514	651.6
699.919	655.2
700.324	652.2
700.75	665.6
701.156	657.6
701.561	666
701.987	662.6
702.393	670.8
702.798	677
703.203	668
703.63	650.2
704.036	652
704.442	672
704.847	648.6
705.274	671.4
705.68	661.4
706.086	668.8
706.492	647.8
706.92	656.2
707.326	681.2
707.732	657.2
708.139	646.8
708.545	660.4
708.973	663.2
709.38	646.2
709.786	647
710.193	687
710.6	664
711.028	653.8
711.435	660.2
711.842	664.6
712.249	652.6
712.656	665
713.064	670
713.492	655.4
713.9	653.6
714.307	664
714.715	659.8
715.123	659.2
715.53	669
715.938	666.2
716.367	660.6
716.775	666.4
717.184	653.6
717.592	655.6
718	673.2
718.408	704.6
718.816	710.6
719.225	659
719.633	663
720.042	654.6
720.472	657.4
720.881	682.6
721.29	663.4
721.699	655
722.108	666.8
722.517	662.2
722.926	658
723.335	674.6
723.744	666.8
724.154	659.2
724.563	665.4
724.973	667
725.382	663.4
725.792	666.8
726.202	653.4
726.612	675.6
727.022	667.2
727.432	665
779.813	657.4
780.223	707.6
780.634	656
781.044	647.2
781.454	653
781.865	673.8
782.276	643.8
782.686	678.2
783.097	653
783.508	657.6
783.919	664.6
784.33	678
784.741	671
785.152	649.2
785.563	643.6
785.974	657
786.386	666
786.776	660.2
787.188	649.8
787.599	652
788.011	669
788.423	660.2
788.835	653.4
789.247	645.8
789.659	648
790.071	658.6
790.483	711
790.874	656.4
791.286	671.8
791.699	656.8
792.111	664.8
792.524	663
792.937	654.4
793.349	646.8
793.741	651.4
794.154	652.6
794.567	681.8
794.98	658.8
795.393	648.4
795.785	677.4
796.198	648.8
796.612	657.8
797.026	653.2
797.439	648.2
797.831	659.8
798.245	643.6
798.659	659.4
799.073	655.2
799.487	647
799.88	668.2
800.294	664.6
800.708	665
801.123	657.6
801.516	687
801.93	639.6
802.345	637.6
802.76	658.2
803.153	673.4
803.568	678.8
803.983	679.8
804.377	662.2
804.792	644.2
805.207	644.8
805.601	670.8
806.016	694.2
806.432	657
806.826	687.6
807.242	669.2
807.658	664.8
808.052	655.8
808.468	658.4
808.884	655.4
809.279	661
809.695	665
810.111	679.6
810.506	657.8
810.922	676
811.339	653.4
811.734	659.8
812.151	645.8
812.546	645.2
812.963	658.8
813.38	656.6
813.776	655.4
814.193	681.8
814.589	643.2
815.006	653.2
815.402	648.8
815.82	654.4
816.237	664
816.633	657.6
817.051	646.8
817.448	656.6
817.866	647.2
818.262	672
818.68	657.2
819.077	656
819.495	651.8
819.892	692.8
820.311	650.4
820.708	648.4
821.127	650.4
821.524	670
821.943	661.8
822.34	665
822.759	655
823.157	649.2
823.576	681
823.974	666.8
824.393	747.2
824.791	650.2
825.189	654.2
825.609	655.4
826.007	653.4
826.427	649.2
826.826	658.6
827.246	656.6
827.644	641.8
828.043	673.8
828.463	647.6
828.862	669.6
829.261	662.8
829.682	642.4
830.081	667.4
830.502	651.8
830.901	662.2
831.301	657.2
831.722	648.6
832.121	658
832.521	643.6
832.943	651
833.342	648.4
833.742	641.6
834.164	655.8
834.564	648
834.965	652.4
835.386	657
835.787	658.4
836.188	654.8
836.588	659.4
837.01	652.2
837.411	643.4
837.812	663
838.213	660.4
838.636	651.4
839.037	733.8
839.438	655
839.84	654.2
840.263	660.6
840.664	658
841.066	658.8
841.468	661.8
841.891	647.4
842.293	667.8
842.695	659
843.098	672.8
843.5	657.4
843.902	658.4
844.326	660.2
844.729	662.8
845.131	679
845.534	654.8
845.937	677.4
846.34	677.6
846.764	646.6
847.167	663
847.571	647.6
847.974	650.2
848.377	642.2
848.781	717.6
849.184	669.2
849.588	647.2
849.992	650.8
850.396	648
850.821	674.6
851.225	660.6
851.63	644.6
852.034	670.4
852.438	649
852.843	702.6
853.247	641.2
853.652	643.4
854.057	663.2
854.462	651
854.867	650.4
855.272	688
855.677	660.4
856.082	645.8
