#lambda/nm	C1
208.295	537.8
208.67	489.4
209.045	455.2
209.419	449.6
209.794	682
210.169	664.2
210.544	812.2
210.919	692.8
211.295	673.6
211.67	690
212.045	685
212.421	677.2
212.796	718
213.172	668.6
213.547	675
213.923	677.2
214.299	680.8
214.675	687.2
215.051	687.4
215.427	687.6
215.803	707.4
216.179	687.8
216.555	670
216.932	685.2
217.308	686.8
217.684	685.2
218.061	686.8
218.438	685.6
218.814	672.2
219.191	689.8
219.568	672.2
219.945	678.8
220.322	684.6
220.699	695.6
221.076	691
221.453	691.6
221.83	679
222.208	682
222.585	679.2
222.962	686.2
223.34	692.8
223.717	689.2
224.095	679
224.473	687
224.851	679
225.229	673.4
225.607	700.2
225.985	668.8
226.363	689.4
226.741	685.8
227.119	672.8
227.497	701.4
227.876	668.8
228.254	691
228.633	696.8
229.011	693.2
229.39	688.4
229.769	685.8
230.148	693.6
230.527	703
230.905	673
231.284	686.4
231.664	671.2
232.043	684
232.422	697.2
232.801	683.8
233.181	687.2
233.56	683.8
233.94	689
234.319	676
234.699	680.6
235.079	732.2
235.458	732.4
235.838	704.4
236.218	671.8
236.598	670.8
236.978	672.2
237.358	676
237.738	683.6
238.119	690.4
238.499	670.4
238.88	686
239.26	701
239.641	672
240.021	677
240.402	686
240.783	679
241.163	682.6
241.544	683.8
241.925	684
242.306	704.4
242.687	668.4
243.069	683.2
243.45	683.2
243.831	676.2
244.212	680.8
244.594	727.8
244.975	698
245.357	680.6
245.739	674
246.12	693.2
246.502	696
246.884	682.4
247.266	668.4
247.648	686.4
248.03	711
248.412	695
248.794	687.6
249.176	682.6
249.559	694.8
249.941	677.8
250.323	675.4
250.706	677.8
251.089	686.4
251.471	696.8
251.854	682.8
252.237	685.6
252.62	694.2
253.002	687.2
253.385	689.4
253.769	700.4
254.152	688.6
254.535	689.8
254.918	676.2
255.301	677.2
255.685	681.2
256.068	678.2
256.452	717
256.835	699.8
257.219	695.2
257.603	702.2
257.986	672.4
258.37	689
258.754	667.6
259.138	694.4
259.522	696.2
259.906	688.4
260.29	693
260.675	677.6
261.059	684.8
261.443	675
261.828	695.6
262.212	695.4
262.597	670.4
262.981	676
263.366	689.6
263.751	688.8
264.136	683
264.521	672.6
264.906	680.6
265.291	699.2
265.676	680.2
266.061	696.4
266.446	712.4
266.831	687.6
267.217	708.4
267.602	686.8
267.987	682.4
268.373	684.2
268.759	697
269.144	683.6
269.53	684.8
269.916	679.8
270.302	676.6
270.688	690.2
271.074	695.6
271.46	699.2
271.846	721
272.232	694
272.618	673.2
273.004	688.4
273.391	692.4
273.777	710.8
274.164	693.2
274.55	707.4
274.937	692.6
275.324	682.2
275.71	691.2
276.097	694.6
276.484	671.6
276.871	687.4
277.258	698.8
277.645	671.4
278.032	675
278.419	681.4
278.807	696
279.194	671.4
279.581	681.8
279.969	694.4
280.356	678
280.744	689
281.131	717.6
281.519	697.2
281.907	684.2
282.295	678.6
282.682	708.4
283.07	685.8
283.458	699.2
283.846	700.4
284.235	697.2
284.623	699.6
285.011	676.8
285.399	687.8
285.788	683.8
286.176	667.4
286.565	699.4
286.953	677.6
287.342	688.8
287.731	672
288.119	675.8
288.508	684.4
288.897	689.2
289.286	678.2
289.675	681.4
290.064	695.4
290.453	684.4
290.821	687.2
291.21	704.8
291.599	674.2
291.989	682.4
292.378	698.4
292.768	705.2
293.157	689
293.547	693.6
293.936	681
294.326	672.4
294.716	690.8
295.106	670.6
295.496	690.8
295.886	691.8
296.276	685
296.666	680.2
297.056	675.6
297.446	669.8
297.836	703.4
298.227	684
298.617	684.4
299.008	696
299.398	685.2
299.789	678
300.179	686.4
300.57	699.4
300.961	689.4
301.352	679.8
301.742	696.2
302.133	691.8
302.524	676.2
302.915	685.6
303.307	670.6
303.698	687.6
304.089	691.8
304.48	678.4
304.872	686.8
305.263	688.2
305.655	677.6
306.046	689.8
306.438	692.8
306.829	684.6
307.221	709.2
307.613	698
308.005	695.6
308.397	702
308.789	713
309.181	715.4
309.573	701.4
309.965	703.6
310.357	687.2
310.749	700.8
311.142	681.8
311.534	688
311.926	692.2
312.319	695.2
312.711	676.2
313.104	707.6
313.497	690
313.889	739.4
314.282	710
314.675	714.8
315.068	694.2
315.461	693.6
315.854	721.4
316.247	699
316.64	692.6
317.033	691
317.405	700.2
317.798	688.8
318.192	694.4
318.585	686.6
318.979	697.2
319.372	676.2
319.766	677
320.16	698.8
320.553	702
320.947	710.8
321.341	696.2
321.735	688.2
322.129	664.8
322.523	719.4
322.917	683
323.311	702
323.705	684.8
324.099	692
324.494	703
324.888	692.6
325.282	684.8
325.677	695.2
326.071	687.2
326.466	698.2
326.861	691.6
327.255	707.4
327.65	712.4
328.045	704.8
328.44	685.2
328.835	683.6
329.23	678.8
329.625	721.6
330.02	678.2
330.415	712.4
330.81	697.6
331.206	687.6
331.601	688.2
331.996	703.4
332.37	716.4
332.766	678.8
333.161	709
333.557	683.2
333.953	688.2
334.348	1078.2
334.744	696.6
335.14	682
335.536	676.8
335.932	701
336.328	684.8
336.724	701.6
337.12	690.2
337.516	687.6
337.913	691.6
338.309	709.4
338.705	685.8
339.102	699
339.498	683.8
339.895	706.2
340.291	683.2
340.688	695
341.085	678.8
341.481	685.8
341.878	686.4
342.275	703.6
342.672	676.4
343.069	683
343.466	678.6
343.842	699.4
344.239	678.4
344.636	687.2
345.033	665.6
345.431	682.8
345.828	689
346.225	675.8
346.623	719.8
347.02	684.4
347.418	691.4
347.816	704.2
348.213	681.8
348.611	692.8
349.009	675.8
349.407	690.8
349.805	677
350.203	665.6
350.601	695
350.999	682.2
351.397	722
351.795	685.8
352.193	700.8
352.57	698.4
352.969	706.2
353.367	670.6
353.766	680.8
354.164	685
354.563	692.8
354.961	684.2
355.36	683.2
355.759	681
356.158	674.8
356.557	675.4
356.956	669.8
357.355	671.6
357.754	696.2
358.153	686.2
358.552	712.4
358.951	684.2
359.35	697.8
359.75	677.8
360.149	675.6
360.527	669
360.926	683.6
361.326	692.2
361.726	682
362.125	673.6
362.525	692.6
362.925	678.2
363.325	681.2
363.724	691.6
364.124	671.4
364.524	673.8
364.924	680.4
365.324	700
365.725	669
366.125	694.4
366.525	679.2
366.904	675.8
367.304	663.2
367.705	700.8
368.105	698.6
368.506	687
368.906	684.6
369.307	686
369.708	685.2
370.108	663.2
370.509	694.8
370.91	681.2
371.311	684.4
371.712	686.8
372.113	674.6
372.514	671.6
372.894	679.2
373.295	675.2
373.696	686.2
374.097	686
374.499	723.2
374.9	681.6
375.301	670.4
375.703	686.8
376.105	677.2
376.506	686
376.908	687.8
377.309	677.6
377.711	688.8
378.113	677.6
378.493	682
378.895	676.4
379.297	692.6
379.699	665
380.102	686.6
380.504	673.2
380.906	683.8
381.308	718
381.71	679.6
382.113	693.4
382.515	675.8
382.918	678.2
383.299	679
383.701	692.8
384.104	692
384.507	649.4
384.909	682.8
385.312	653.4
385.715	673.6
386.118	675.8
386.521	670.6
386.924	693
387.327	675.2
387.709	663.8
388.112	662.8
388.515	674.2
388.918	681.2
389.322	679
389.725	677.2
390.129	711.4
390.532	680.2
390.936	674
391.339	667.4
391.743	679.6
392.125	668.2
392.529	683.2
392.933	687.6
393.337	683
393.74	684.2
394.144	681.8
394.548	676.6
394.953	670.6
395.357	689
395.761	677.4
396.144	684.2
396.548	669.4
396.952	681.8
397.357	677.4
397.761	671.2
398.166	674.4
398.57	676.2
398.975	659.4
399.379	680
399.763	730.2
400.168	674.6
400.572	669.8
400.977	679.4
401.382	694.2
401.787	691.4
402.192	702.8
402.597	698.6
403.002	671.6
403.386	695.8
403.791	702.4
404.197	676.2
404.602	679.4
405.007	689.8
405.413	671.4
405.818	683.2
406.224	673.6
406.608	677.6
407.014	666
407.42	696.4
407.825	670.4
408.231	682.6
408.637	680.6
409.043	693.6
409.449	668.6
409.834	672.6
410.24	669.8
410.646	693
411.052	681.2
411.458	675.8
411.865	688.6
412.271	696.8
412.677	676.2
413.062	686.2
413.469	668.6
413.875	717.6
414.282	701
414.689	685.2
415.095	690.4
415.502	675.4
415.888	692.8
416.294	662.6
416.701	732.8
417.108	668.2
417.515	692.4
417.923	677
418.33	702.4
418.715	685.6
419.123	678.4
419.53	674.6
419.937	674.8
420.345	691.8
420.752	680
421.16	699
421.546	684.4
421.953	693.2
422.361	680
422.769	673.4
423.177	668.4
423.585	710.2
423.992	706.8
424.379	698.4
424.787	691.8
425.195	709.6
425.603	675
426.011	700
426.419	696
426.806	684
427.214	691.6
427.623	687.4
428.031	708.6
428.44	695.2
428.848	702.2
429.235	704.8
429.644	681
430.053	684.4
430.461	698.2
430.87	712.8
431.279	692.8
431.666	671.2
432.075	685.8
432.484	693.6
432.893	681.6
433.302	700.2
433.711	745
434.099	690.4
434.508	683.6
434.918	671.8
435.327	698
435.737	679.4
436.125	687
436.534	696.2
436.944	687.6
437.353	681
437.763	709
438.173	672.4
438.561	695
438.971	667.6
439.381	679.4
439.791	678.8
440.201	662.8
440.589	680.4
440.999	680.6
441.409	682.6
441.819	656.6
442.23	691.4
442.619	685.8
443.029	683.2
443.439	679.8
443.85	692
444.26	701.6
444.649	684.6
445.06	681.8
445.471	676
445.881	689.6
446.292	694
446.682	710.8
447.092	665.4
447.503	741.8
447.914	683
448.325	678.2
448.715	679
449.126	677
449.537	678.2
449.948	677.6
450.338	679.6
450.75	684.8
451.161	682.6
451.572	689.4
451.984	666.6
452.374	673.8
452.786	674.2
453.197	676
453.609	683.8
453.999	667.4
454.411	672.6
454.823	688.8
455.235	683.6
455.647	669.8
456.037	682.6
456.449	661.2
456.862	675.8
457.274	682.2
457.665	667.6
458.077	684.4
458.489	715
458.902	669
459.293	678.4
459.705	678.6
460.118	670.4
460.53	683.2
460.921	675.6
461.334	682.2
461.747	676.8
462.16	690.8
462.551	694.4
462.964	690.2
463.377	666
463.79	673.6
464.182	685
464.595	671.2
465.008	679
465.421	680
465.813	684.8
466.226	679
466.64	672
467.053	729
467.445	687
467.859	690.8
468.272	683.2
468.686	684.6
469.078	674
469.492	665.2
469.906	681.6
470.298	680.4
470.712	665.8
471.126	738
471.54	660.4
471.933	676.2
472.347	663.6
472.761	681.8
473.175	666.2
473.568	671.2
473.982	670.6
474.397	674.2
474.79	670.6
475.204	680.2
475.619	673
476.033	680.6
476.426	675.2
476.841	671.8
477.256	706.8
477.649	653.8
478.064	655.6
478.479	672.2
478.872	672
479.287	658.6
479.702	663.6
480.118	665.8
480.511	672.8
480.927	670.6
481.342	666.8
481.736	674.6
482.151	663.4
482.566	683.4
482.96	671.8
483.376	688.6
483.792	668
484.186	680.4
484.602	671
485.017	672.8
485.412	668.4
485.827	681.2
486.243	676.8
486.638	702.2
487.054	688.2
487.47	691.4
487.865	668.8
488.281	672.2
488.697	667.2
489.092	678.8
489.508	662.8
489.925	680.8
490.32	661.6
490.736	679
491.153	681.8
491.548	669.8
491.964	688.2
492.381	663
492.776	684.8
493.193	676.2
493.61	676.8
494.006	676
494.422	667.4
494.84	666.4
495.235	679.2
495.652	660.4
496.069	657.4
496.465	654.8
496.883	671.2
497.3	693.4
497.696	668.2
498.113	679.4
498.509	656.8
498.927	657.4
499.344	661.4
499.741	648.8
500.158	687.4
500.576	690.8
500.973	671.4
501.39	670.8
501.787	659.2
502.205	666.4
502.623	653
503.02	656.8
503.438	658.8
503.856	663.6
504.253	671.4
504.671	670.6
505.068	660.2
505.486	664.6
505.905	690.2
506.302	680.4
506.72	676
507.118	659.6
507.536	678.4
507.955	659.4
508.352	674.4
508.771	679.6
509.169	672
509.587	667.2
510.006	672.6
510.404	653
510.823	655.8
511.221	663.6
511.64	657.4
512.038	682.6
512.457	667.2
512.877	664.4
513.275	663.6
513.694	659.8
514.092	662.6
514.512	668.8
514.91	666.6
515.33	669.4
515.749	663.2
516.148	671.4
516.568	664.8
516.966	670.6
517.386	663
517.785	670.8
518.205	659.4
518.603	662.8
519.024	655.4
519.444	673.4
519.843	690.4
520.263	671.2
520.662	670.2
521.082	670.2
521.481	670.8
521.902	670.4
522.301	672.6
522.722	677
523.121	669.2
523.542	666.4
523.963	674
524.362	669
524.783	664.8
525.183	658.6
525.604	678.8
526.003	658.2
526.425	657.8
526.824	672.6
527.246	679.4
527.646	677.8
528.067	670.4
528.467	669.8
528.888	675.6
529.289	665.6
529.71	663.2
530.11	662.6
530.532	664.8
530.932	657.6
531.354	661.8
531.755	705.4
532.176	677
532.577	662
532.999	666
533.4	663.4
533.822	678.4
534.223	668
534.645	667.8
535.046	662.6
535.468	669.4
535.869	679.4
536.292	669.4
536.693	713.2
537.115	679.6
537.516	652.2
537.939	669.4
538.34	690.4
538.742	685.8
539.165	677
539.566	665.2
539.989	661.8
540.391	661.8
540.814	666.4
541.216	670.6
541.639	658.2
542.041	677.6
542.464	663.4
542.866	659.6
543.268	654.4
543.691	667.8
544.093	673.4
544.517	684.4
544.919	656
545.343	692.4
545.745	655.4
546.147	672.2
546.571	664.8
546.974	650.2
547.398	666.4
547.8	688
548.224	664
548.627	661
549.03	668.4
549.454	655.4
549.857	659.6
550.281	663
550.684	663.2
551.087	678.6
551.512	658.2
551.915	665
552.34	668.4
552.743	669.4
553.146	665
553.571	661
553.975	683.2
554.399	661.8
554.803	725
555.207	668.6
555.632	660.6
556.036	673.2
556.461	659.2
556.865	674.6
557.268	670.2
557.694	661.8
558.098	677.4
558.502	670
558.927	658.4
559.332	663.2
559.736	674
560.162	674.8
560.566	666.8
560.992	675.2
561.396	668.4
561.801	669.4
562.227	677.2
562.631	662.2
563.036	674.4
563.462	686
563.867	671.4
564.272	659.2
564.698	672.2
565.103	668
565.508	692.6
565.935	679.8
566.34	673.4
566.745	689.6
567.172	671
567.577	693.8
567.982	689.8
568.409	677.2
568.815	668.6
569.22	667
569.626	683.2
570.053	660.6
570.459	678.8
570.865	676.4
571.292	675
571.698	670.6
572.104	658.2
572.531	669.4
572.937	685.4
573.343	672.6
573.75	669
574.177	670
574.583	673.2
574.99	668.4
575.396	671.4
575.824	670.2
576.231	677.2
576.637	662.4
577.065	692.4
577.472	661.8
577.879	666.4
578.286	689
578.714	658.8
579.121	663.6
579.528	673.2
579.935	683.4
580.364	666.8
580.771	661.8
581.178	656.4
581.585	670.2
582.014	671.2
582.421	659
582.829	656.4
583.236	676
583.644	660.4
584.073	665.6
584.481	672.4
584.889	661.6
585.296	674.6
585.726	660.8
586.134	663
586.542	662
586.95	685
587.358	659.6
587.787	669.8
588.196	652.6
588.604	664.4
589.012	671
589.421	655.8
589.851	660.2
590.259	661.8
590.668	661.2
591.076	704.4
591.485	655.6
591.894	664.4
592.324	676.6
592.733	674.4
593.142	646.6
593.551	663.6
593.96	668.6
594.369	644
594.8	646.8
595.209	666.2
595.618	642.2
596.028	665.4
596.437	655.6
596.847	667
597.256	662.2
597.687	664.6
598.097	663.2
598.507	644
598.917	664.2
599.327	669.2
599.736	664.2
600.146	672.6
600.556	669.8
600.988	681.6
601.398	662.6
601.808	676
602.219	651.2
602.629	664
603.039	666.8
603.45	691.4
603.86	657.8
604.271	684.4
604.703	661
605.114	668.6
605.525	658
605.935	665.6
606.346	678.2
606.757	664.6
607.168	655.6
607.579	660.2
607.99	679.6
608.402	662
608.813	662
609.224	657.6
609.636	654.6
610.047	662
610.48	658.8
610.892	672.8
611.303	670
611.715	662.4
612.127	655.4
612.539	653.6
612.95	665
613.362	648.2
613.774	643.8
614.186	656.8
614.599	653.4
615.011	668.2
615.423	657.8
615.835	661.8
616.248	643
616.66	660.4
617.073	645.6
617.485	654
617.898	667.2
618.311	653.8
618.723	658.2
619.136	691.4
619.549	672.4
619.962	682.6
620.375	657.8
620.788	656.2
621.201	653.2
621.614	671.2
622.028	652.4
622.441	658.2
622.854	681.6
623.268	657
623.681	670.8
624.095	664.8
624.509	674.6
624.922	670.8
625.336	642.2
625.728	665.4
626.142	668.8
626.556	684.6
626.97	664.2
627.384	650.8
627.799	666.8
628.213	675.4
628.627	663.2
629.041	663.4
629.456	649.4
629.87	668
630.285	671.6
630.699	677
631.093	658.6
631.507	669.2
631.922	672.2
632.337	677.2
632.752	651.6
633.167	669.6
633.582	655.6
633.997	658.8
634.412	655.8
634.806	663.2
635.221	650.8
635.637	672.4
636.052	654.6
636.468	656.4
636.883	678.2
637.299	659.2
637.715	656.6
638.109	657.8
638.525	646.8
638.941	669.8
639.357	671.2
639.773	672.8
640.189	657
640.584	663
641	673.4
641.416	654
641.832	653
642.249	658.8
642.665	658.6
643.06	668.8
643.477	671.6
643.894	643.4
644.31	658.2
644.727	661.6
645.123	663.8
645.54	652
645.957	661.4
646.374	680.6
646.77	664.8
647.187	692.4
647.604	665
648.021	636.6
648.439	656
648.835	659
649.252	668
649.67	662.2
650.088	649
650.484	664.6
650.902	662.6
651.32	664
651.738	652.2
652.134	667.8
652.552	681
652.971	659.8
653.389	653.6
653.786	675.2
654.204	679.6
654.622	649.6
655.019	661
655.438	663.4
655.857	668
656.275	660.2
656.673	650.6
657.091	739
657.51	660.6
657.908	674.2
658.327	676.4
658.746	649
659.144	657.6
659.563	670.8
659.982	668.8
660.38	650.8
660.8	662.2
661.219	667.8
661.617	660.8
662.037	652.6
662.457	675.6
662.855	640
663.275	682.4
663.695	664.6
664.094	647.6
664.514	661.8
664.934	650.8
665.333	668.2
665.753	652.8
666.152	650
666.572	654.8
666.993	664
667.392	651.8
667.812	661.4
668.212	662.4
668.632	675.2
669.053	658
669.453	666.4
669.874	662
670.273	663.4
670.694	651.6
671.116	681
671.515	673.2
671.937	655.6
672.337	657.2
672.758	649.6
673.158	676.6
673.58	652.6
673.98	665.8
674.402	674.4
674.824	657.4
675.224	649.2
675.646	649.8
676.047	653
676.469	666.2
676.869	666.2
677.292	660.8
677.693	653.6
678.115	648
678.516	661.8
678.939	669.4
679.34	659.8
679.762	672.8
680.164	665.6
680.586	655.2
680.988	667.6
681.411	682
681.812	661.2
682.236	651.8
682.637	655.6
683.061	647.2
683.462	663.6
683.864	651.6
684.288	660.6
684.69	652.6
685.114	671
685.516	669.4
685.94	655
686.342	670
686.766	647
687.168	653
687.571	675.4
687.995	663.6
688.398	644.6
688.822	651.4
689.225	683.6
689.628	678.8
690.052	655.4
690.456	673.2
690.88	651.4
691.284	645.4
691.687	661.2
692.112	653
692.515	653.8
692.919	670.2
693.344	656.4
693.747	658.8
694.173	649
694.577	667
694.98	659
695.406	655.6
695.81	662.2
696.214	661.4
696.64	668.6
697.044	658.8
697.448	669.4
697.874	654.8
698.279	653.6
698.684	646
699.11	647.4
699.514	652
699.919	660.2
700.324	651
700.75	659.6
701.156	654.2
701.561	672.8
701.987	667.6
702.393	670
702.798	666.6
703.203	659.6
703.63	647
704.036	655.4
704.442	659.2
704.847	638.2
705.274	647.8
705.68	650
706.086	666.4
706.492	645.2
706.92	662.2
707.326	671
707.732	645.4
708.139	649.4
708.545	657
708.973	646.8
709.38	656.8
709.786	638.8
710.193	669.6
710.6	660.8
711.028	648.6
711.435	662.4
711.842	666.2
712.249	648.8
712.656	656.6
713.064	656.2
713.492	644
713.9	651.8
714.307	667.8
714.715	657.6
715.123	662.6
715.53	659.2
715.938	670.6
716.367	658.2
716.775	658.4
717.184	651.2
717.592	654.2
718	664.8
718.408	688
718.816	702.8
719.225	657.4
719.633	644.8
720.042	642.6
720.472	654.4
720.881	676.2
721.29	664.8
721.699	643.4
722.108	658.2
722.517	666.2
722.926	647
723.335	671
723.744	650.6
724.154	659.2
724.563	660.2
724.973	662.4
725.382	644.2
725.792	658
726.202	648.8
726.612	686.2
727.022	663
727.432	650.8
779.813	650.4
780.223	704
780.634	652
781.044	647
781.454	658
781.865	677.8
782.276	647
782.686	670
783.097	657.2
783.508	651
783.919	662.4
784.33	669
784.741	676.2
785.152	650.6
785.563	640.2
785.974	646.6
786.386	667
786.776	653.8
787.188	652
787.599	651.2
788.011	664.2
788.423	655.8
788.835	648.2
789.247	640
789.659	651.8
790.071	648
790.483	700
790.874	663.2
791.286	670.8
791.699	648
792.111	660.2
792.524	660.4
792.937	652.2
793.349	647.2
793.741	643.4
794.154	648.4
794.567	672.8
794.98	650.2
795.393	651.2
795.785	665
796.198	648
796.612	652.6
797.026	652
797.439	640.4
797.831	656.8
798.245	646
798.659	646.8
799.073	650.6
799.487	645.6
799.88	664
800.294	657.4
800.708	655
801.123	656
801.516	675.4
801.93	638.2
802.345	654.4
802.76	656.2
803.153	675.8
803.568	669
803.983	673.2
804.377	661.6
804.792	639.4
805.207	637.4
805.601	657.2
806.016	693
806.432	654.2
806.826	690.4
807.242	669.6
807.658	658.8
808.052	643.4
808.468	644.8
808.884	653.4
809.279	651.2
809.695	669
810.111	684.4
810.506	656.6
810.922	675.8
811.339	647.8
811.734	660.2
812.151	644.6
812.546	651.2
812.963	648.8
813.38	657.4
813.776	660.6
814.193	686.6
814.589	643.4
815.006	642.6
815.402	649.2
815.82	646.8
816.237	658.8
816.633	652.2
817.051	643.2
817.448	662.4
817.866	649.6
818.262	673.8
818.68	656.2
819.077	647.6
819.495	651
819.892	700
820.311	647.8
820.708	652.4
821.127	656.4
821.524	667
821.943	657.6
822.34	677.4
822.759	660
823.157	651.2
823.576	677
823.974	672.4
824.393	728.2
824.791	647.6
825.189	641.8
825.609	645.8
826.007	654.2
826.427	634
826.826	659.8
827.246	667.2
827.644	640
828.043	662.8
828.463	650.2
828.862	664
829.261	655.2
829.682	640.8
830.081	660.4
830.502	644.4
830.901	653.8
831.301	649
831.722	640.6
832.121	659.4
832.521	648.4
832.943	650.6
833.342	657.4
833.742	651.2
834.164	649
834.564	646.2
834.965	654.2
835.386	649
835.787	654
836.188	659.8
836.588	653.6
837.01	655.4
837.411	648
837.812	658.6
838.213	657
838.636	651.6
839.037	732.4
839.438	654.4
839.84	658
840.263	665
840.664	652.6
841.066	652.4
841.468	656
841.891	648.8
842.293	667.2
842.695	656.4
843.098	663.4
843.5	653.2
843.902	655.4
844.326	666
844.729	660
845.131	674.6
845.534	651
845.937	665.6
846.34	681.4
846.764	646
847.167	656.4
847.571	645.2
847.974	649.4
848.377	655.6
848.781	715.2
849.184	668
849.588	650
849.992	642
850.396	660.4
850.821	670.2
851.225	662.6
851.63	645.8
852.034	665.2
852.438	652.2
852.843	790.8
853.247	649.6
853.652	653.4
854.057	669.8
854.462	647.6
854.867	657.4
855.272	695.8
855.677	656
856.082	640.2
856.487	639.8
