#lambda/nm	C1
208.295	542.6
208.67	492
209.045	451
209.419	459.8
209.794	678
210.169	668.4
210.544	814.6
210.919	692.6
211.295	677.8
211.67	687.6
212.045	681
212.421	688.2
212.796	720.2
213.172	687.2
213.547	676.8
213.923	686.8
214.299	681.2
214.675	696.8
215.051	687.2
215.427	692
215.803	709.6
216.179	688.6
216.555	686.6
216.932	695.8
217.308	694
217.684	680
218.061	685.8
218.438	687
218.814	680
219.191	704.4
219.568	678.6
219.945	690
220.322	690.8
220.699	687.2
221.076	696.4
221.453	701.4
221.83	683
222.208	670.2
222.585	683.6
222.962	682.6
223.34	699.4
223.717	693.6
224.095	686
224.473	688.2
224.851	690.2
225.229	668.2
225.607	708.2
225.985	671
226.363	693.2
226.741	687
227.119	686
227.497	701.8
227.876	680.8
228.254	688.6
228.633	690
229.011	690.4
229.39	693
229.769	689.2
230.148	701.6
230.527	704.6
230.905	683.6
231.284	694.2
231.664	681
232.043	700.6
232.422	693.8
232.801	683.8
233.181	689.4
233.56	692.6
233.94	687
234.319	677
234.699	684
235.079	745.2
235.458	725.6
235.838	708.8
236.218	682.4
236.598	676.2
236.978	681
237.358	672.6
237.738	680
238.119	695.4
238.499	685.2
238.88	683.6
239.26	702.8
239.641	673.2
240.021	674.6
240.402	688.6
240.783	682
241.163	680.2
241.544	690
241.925	677.2
242.306	709.8
242.687	693.2
243.069	690
243.45	694.4
243.831	678.2
244.212	681.4
244.594	729.8
244.975	690.2
245.357	691.2
245.739	677.4
246.12	680.8
246.502	705.2
246.884	680
247.266	681.4
247.648	687.6
248.03	713
248.412	696.6
248.794	691.4
249.176	678
249.559	698
249.941	683.2
250.323	675.6
250.706	679.8
251.089	682.2
251.471	694.8
251.854	689.6
252.237	690
252.62	697.2
253.002	688
253.385	687.4
253.769	707.4
254.152	687
254.535	694.8
254.918	680.6
255.301	684.2
255.685	689.6
256.068	674.2
256.452	718.4
256.835	701.4
257.219	689.6
257.603	707
257.986	679.4
258.37	692
258.754	677.4
259.138	688
259.522	711.6
259.906	684.2
260.29	692.2
260.675	683
261.059	688.4
261.443	668.8
261.828	686.2
262.212	692.4
262.597	677.8
262.981	675.4
263.366	702.2
263.751	695.2
264.136	688.4
264.521	687.8
264.906	678.2
265.291	704.6
265.676	687
266.061	684.8
266.446	712.8
266.831	689.4
267.217	709.6
267.602	689.6
267.987	686.6
268.373	687.2
268.759	691.8
269.144	684.6
269.53	686.4
269.916	671
270.302	679.8
270.688	689.4
271.074	687.8
271.46	696.4
271.846	725.4
272.232	684
272.618	675.6
273.004	685.4
273.391	699.8
273.777	702.2
274.164	684
274.55	704.4
274.937	685.2
275.324	682.4
275.71	697.4
276.097	692
276.484	680.4
276.871	691.2
277.258	686
277.645	689.8
278.032	684.4
278.419	681.6
278.807	694.6
279.194	685.6
279.581	684.6
279.969	696.4
280.356	688.8
280.744	691.8
281.131	714.8
281.519	694.2
281.907	674
282.295	687.2
282.682	703
283.07	682.8
283.458	700.2
283.846	698.6
284.235	701.6
284.623	694.8
285.011	692.6
285.399	693
285.788	685.2
286.176	679.8
286.565	704.2
286.953	679.2
287.342	685.6
287.731	695.8
288.119	680.2
288.508	686.4
288.897	688.8
289.286	672.6
289.675	688.6
290.064	698.2
290.453	679.2
290.821	684.4
291.21	706.8
291.599	682.2
291.989	689.4
292.378	695.4
292.768	710.8
293.157	694
293.547	701.8
293.936	688.4
294.326	685.6
294.716	695.4
295.106	683.2
295.496	692.8
295.886	689.2
296.276	682.4
296.666	672.2
297.056	684.6
297.446	676
297.836	708.2
298.227	693
298.617	688.2
299.008	694.6
299.398	690.4
299.789	680
300.179	693.2
300.57	706.8
300.961	689.8
301.352	678.8
301.742	698.8
302.133	685.8
302.524	688
302.915	699.4
303.307	689.8
303.698	698.4
304.089	691.8
304.48	688
304.872	688.2
305.263	695.2
305.655	674.4
306.046	691.2
306.438	693
306.829	678.2
307.221	708.6
307.613	702.2
308.005	705.2
308.397	707.4
308.789	716.6
309.181	720.2
309.573	719.4
309.965	702
310.357	692.6
310.749	705.4
311.142	683.4
311.534	695.2
311.926	696.4
312.319	695
312.711	682
313.104	706.8
313.497	696.4
313.889	740.2
314.282	705.2
314.675	724.4
315.068	686.2
315.461	701.4
315.854	723
316.247	695.8
316.64	696.4
317.033	686
317.405	710
317.798	687.4
318.192	699.4
318.585	687
318.979	706.8
319.372	686.4
319.766	691.8
320.16	707.8
320.553	707.8
320.947	720.6
321.341	688
321.735	695
322.129	675.2
322.523	717.4
322.917	681
323.311	702.6
323.705	698.8
324.099	696.2
324.494	712.4
324.888	709
325.282	700.8
325.677	710.6
326.071	708.2
326.466	708.8
326.861	701
327.255	704.6
327.65	705
328.045	706.2
328.44	697
328.835	695.4
329.23	677.2
329.625	716.8
330.02	687.2
330.415	711.6
330.81	702.6
331.206	691.8
331.601	684
331.996	705.4
332.37	713.8
332.766	671.6
333.161	714.8
333.557	696.6
333.953	693.4
334.348	1131.8
334.744	693.8
335.14	685.4
335.536	694.2
335.932	709.6
336.328	688
336.724	703.4
337.12	690.6
337.516	699.2
337.913	689.4
338.309	707.2
338.705	701.8
339.102	698.2
339.498	690.4
339.895	707.8
340.291	683.2
340.688	695.8
341.085	678
341.481	696.2
341.878	691
342.275	706.4
342.672	686.4
343.069	683.8
343.466	681
343.842	701.6
344.239	678.6
344.636	689
345.033	673.6
345.431	684.4
345.828	693.6
346.225	689.4
346.623	726.4
347.02	689.8
347.418	694.2
347.816	703
348.213	678.6
348.611	691.8
349.009	689.4
349.407	699
349.805	683.4
350.203	669.2
350.601	699.2
350.999	686.8
351.397	754.8
351.795	687.4
352.193	691.4
352.57	702.2
352.969	703.4
353.367	680.2
353.766	677.2
354.164	682.4
354.563	697.2
354.961	688.8
355.36	684.6
355.759	686
356.158	675
356.557	681.8
356.956	680
357.355	672.8
357.754	693.4
358.153	690
358.552	712.2
358.951	680
359.35	700.6
359.75	686.2
360.149	675.8
360.527	672
360.926	678.6
361.326	684.8
361.726	680
362.125	674
362.525	699.2
362.925	684.8
363.325	687.2
363.724	685.4
364.124	675.2
364.524	687.6
364.924	680.2
365.324	696
365.725	673.8
366.125	687.4
366.525	686.6
366.904	680.2
367.304	665.4
367.705	703.4
368.105	700.4
368.506	684.2
368.906	686.2
369.307	682.8
369.708	688
370.108	671.6
370.509	694.4
370.91	682
371.311	686
371.712	687.4
372.113	684.6
372.514	671.8
372.894	682.8
373.295	670.2
373.696	694
374.097	689.4
374.499	712.6
374.9	675.6
375.301	666.4
375.703	681.4
376.105	669.4
376.506	683.4
376.908	676.4
377.309	674.6
377.711	679.6
378.113	677
378.493	679.8
378.895	678.8
379.297	686.4
379.699	659.6
380.102	687.6
380.504	682.2
380.906	679.8
381.308	721
381.71	678.2
382.113	694.2
382.515	680.6
382.918	688.6
383.299	677.2
383.701	696
384.104	688
384.507	666.4
384.909	685
385.312	678
385.715	679.6
386.118	675.8
386.521	675.6
386.924	693.8
387.327	670.8
387.709	663
388.112	662
388.515	685.4
388.918	676
389.322	695.8
389.725	674.2
390.129	704.4
390.532	688.2
390.936	682.4
391.339	671.6
391.743	682
392.125	679.4
392.529	703
392.933	696.4
393.337	684.4
393.74	679
394.144	681.8
394.548	672.4
394.953	674.8
395.357	687.4
395.761	678.2
396.144	680.6
396.548	670.4
396.952	671.2
397.357	685
397.761	666.4
398.166	677.2
398.57	672.6
398.975	676.4
399.379	691.2
399.763	736.2
400.168	671.8
400.572	682
400.977	674.8
401.382	700
401.787	686.4
402.192	703.4
402.597	695.8
403.002	665.4
403.386	688.4
403.791	701.4
404.197	670.4
404.602	688.2
405.007	681.2
405.413	679.6
405.818	673.8
406.224	667.2
406.608	670.6
407.014	662.8
407.42	699.8
407.825	670.8
408.231	688.6
408.637	685.6
409.043	708.6
409.449	675.8
409.834	662
410.24	681.8
410.646	694.8
411.052	695
411.458	686.8
411.865	692.6
412.271	692.6
412.677	693.8
413.062	693.4
413.469	667.8
413.875	711.2
414.282	704.4
414.689	693
415.095	695.4
415.502	674.2
415.888	679.4
416.294	672.8
416.701	733.2
417.108	677.2
417.515	697
417.923	681.4
418.33	711.8
418.715	699
419.123	682
419.53	684.2
419.937	685.6
420.345	705.8
420.752	687.4
421.16	703.6
421.546	685.8
421.953	690.6
422.361	679.2
422.769	685.6
423.177	683.4
423.585	715.2
423.992	709.2
424.379	697.4
424.787	690.6
425.195	711.6
425.603	680.6
426.011	698.6
426.419	704.2
426.806	687
427.214	691.8
427.623	695.8
428.031	697.4
428.44	696.8
428.848	702.4
429.235	700.8
429.644	690.2
430.053	682.6
430.461	704.2
430.87	724
431.279	701.2
431.666	687.2
432.075	686.4
432.484	686
432.893	685.2
433.302	707.8
433.711	749.2
434.099	694
434.508	676.8
434.918	670.2
435.327	695
435.737	691.8
436.125	688.4
436.534	688.6
436.944	697.2
437.353	696.2
437.763	707.4
438.173	681.6
438.561	691.2
438.971	675.2
439.381	687.2
439.791	689.4
440.201	668.2
440.589	682
440.999	700.6
441.409	689.4
441.819	667.4
442.23	692
442.619	699.6
443.029	688.6
443.439	690.8
443.85	705.6
444.26	702.2
444.649	698.6
445.06	685.2
445.471	676.4
445.881	678.4
446.292	702.8
446.682	711.8
447.092	677.8
447.503	742.2
447.914	669.6
448.325	682.8
448.715	682.4
449.126	676.2
449.537	685.6
449.948	679
450.338	682
450.75	681.8
451.161	690.2
451.572	695.6
451.984	672.8
452.374	666.4
452.786	680
453.197	685.8
453.609	688.4
453.999	670.2
454.411	670.4
454.823	688.2
455.235	691.2
455.647	668.2
456.037	687.6
456.449	663
456.862	680.4
457.274	690.6
457.665	662.4
458.077	685.8
458.489	714.8
458.902	677.2
459.293	685.6
459.705	678.8
460.118	675.8
460.53	682.4
460.921	683.4
461.334	697
461.747	687.4
462.16	694.6
462.551	692.4
462.964	687.2
463.377	665.2
463.79	684.4
464.182	694
464.595	676.8
465.008	676.2
465.421	684
465.813	676.6
466.226	690.4
466.64	674.4
467.053	723
467.445	687.2
467.859	694.2
468.272	678.6
468.686	693
469.078	675
469.492	667
469.906	678.4
470.298	689.8
470.712	675.8
471.126	735.8
471.54	658.4
471.933	668.6
472.347	671
472.761	665.4
473.175	673.6
473.568	683
473.982	672.4
474.397	675.8
474.79	684.8
475.204	676.4
475.619	682.6
476.033	680.8
476.426	676
476.841	673.4
477.256	698.2
477.649	679
478.064	658
478.479	665.8
478.872	661
479.287	651.4
479.702	661.8
480.118	669.6
480.511	664.6
480.927	668.4
481.342	670.6
481.736	677.8
482.151	662.6
482.566	691.6
482.96	673.4
483.376	679.4
483.792	672.4
484.186	673.2
484.602	674.6
485.017	688.2
485.412	670.6
485.827	680.4
486.243	664.8
486.638	711.2
487.054	685
487.47	695.8
487.865	683.8
488.281	676.2
488.697	670.8
489.092	678
489.508	668.6
489.925	691.4
490.32	669.8
490.736	697.8
491.153	678.8
491.548	684
491.964	692
492.381	667.8
492.776	691.2
493.193	677
493.61	689.8
494.006	676.4
494.422	694
494.84	669.8
495.235	689.8
495.652	684.8
496.069	675.2
496.465	668.4
496.883	679.6
497.3	716.8
497.696	677.4
498.113	685.6
498.509	670.4
498.927	663
499.344	674
499.741	669.8
500.158	687.4
500.576	700
500.973	682.2
501.39	672.4
501.787	673.4
502.205	687.6
502.623	666.8
503.02	670.8
503.438	670.2
503.856	687
504.253	683.8
504.671	690.2
505.068	677
505.486	685.4
505.905	704.8
506.302	683.2
506.72	691
507.118	671.2
507.536	681.2
507.955	684.6
508.352	685
508.771	697.2
509.169	698.8
509.587	678
510.006	688.4
510.404	680.6
510.823	686.4
511.221	694.6
511.64	686.4
512.038	708.2
512.457	694
512.877	689.4
513.275	685.2
513.694	693.4
514.092	689.8
514.512	702.2
514.91	694.2
515.33	693.6
515.749	701.4
516.148	702.4
516.568	703.6
516.966	701
517.386	691.8
517.785	708
518.205	696.6
518.603	690.4
519.024	692.4
519.444	706.4
519.843	706.6
520.263	715.8
520.662	713.8
521.082	707.2
521.481	694
521.902	693.6
522.301	696.2
522.722	696
523.121	697.4
523.542	696.2
523.963	696.2
524.362	700.2
524.783	701.2
525.183	702
525.604	696.4
526.003	683
526.425	689.4
526.824	699.4
527.246	695.8
527.646	707
528.067	698.2
528.467	693.8
528.888	708
529.289	685.4
529.71	686.6
530.11	693.6
530.532	693.6
530.932	687
531.354	677.2
531.755	736.8
532.176	698.4
532.577	685.8
532.999	696.6
533.4	689.2
533.822	705
534.223	695.8
534.645	693.6
535.046	689.6
535.468	684.6
535.869	703.2
536.292	687.8
536.693	724.8
537.115	688.8
537.516	680.2
537.939	683.8
538.34	701.6
538.742	698.8
539.165	692.2
539.566	685
539.989	672.6
540.391	665
540.814	681.8
541.216	686
541.639	692.8
542.041	701
542.464	679.2
542.866	677
543.268	671.6
543.691	685.4
544.093	691
544.517	712
544.919	675.8
545.343	713.2
545.745	668.6
546.147	684.6
546.571	678
546.974	663.6
547.398	685.6
547.8	692
548.224	674.2
548.627	679.6
549.03	691
549.454	666.2
549.857	671.4
550.281	666.4
550.684	664.4
551.087	687
551.512	686.4
551.915	692.6
552.34	678.2
552.743	667.8
553.146	678.6
553.571	676.6
553.975	699.2
554.399	666.2
554.803	730.4
555.207	670
555.632	672
556.036	678
556.461	670.2
556.865	667.8
557.268	667.4
557.694	667
558.098	676
558.502	672
558.927	668.6
559.332	669.8
559.736	677
560.162	676.2
560.566	666.4
560.992	674.2
561.396	677.8
561.801	669.4
562.227	671.4
562.631	657.8
563.036	678.8
563.462	675.2
563.867	664.4
564.272	648.6
564.698	674.2
565.103	672.4
565.508	694
565.935	670.4
566.34	671.2
566.745	684.8
567.172	666.2
567.577	691.2
567.982	682.6
568.409	673
568.815	669.8
569.22	672.2
569.626	670
570.053	656.6
570.459	668.2
570.865	675.4
571.292	675.6
571.698	675.6
572.104	652
572.531	658.4
572.937	675
573.343	670.4
573.75	668.2
574.177	671.6
574.583	674.2
574.99	664.8
575.396	674.2
575.824	663.4
576.231	670.8
576.637	664.4
577.065	699.2
577.472	661.8
577.879	657.6
578.286	682.8
578.714	661.6
579.121	667.2
579.528	678.8
579.935	677.6
580.364	664.4
580.771	647.6
581.178	663.6
581.585	659.2
582.014	673
582.421	656.6
582.829	651.2
583.236	664.2
583.644	654.6
584.073	669.4
584.481	665.2
584.889	663.6
585.296	670.4
585.726	667.6
586.134	646.4
586.542	662.4
586.95	686.6
587.358	647
587.787	663.4
588.196	649.6
588.604	659.6
589.012	660.8
589.421	643.8
589.851	656
590.259	665.8
590.668	662.2
591.076	706
591.485	660.8
591.894	658.6
592.324	687.4
592.733	687.8
593.142	646.8
593.551	662.8
593.96	701.6
594.369	656.2
594.8	659
595.209	661.6
595.618	648.2
596.028	653.4
596.437	658
596.847	660.4
597.256	667.8
597.687	672.2
598.097	661
598.507	653.6
598.917	664.8
599.327	671.8
599.736	676
600.146	677
600.556	662.4
600.988	687.8
601.398	655.6
601.808	683.2
602.219	657
602.629	666.2
603.039	665.8
603.45	704.4
603.86	665.4
604.271	684.6
604.703	669
605.114	658.4
605.525	660.4
605.935	670.6
606.346	688.8
606.757	668
607.168	656
607.579	655.4
607.99	680
608.402	659
608.813	677.4
609.224	660.2
609.636	654.8
610.047	658.8
610.48	665.2
610.892	677.2
611.303	673.4
611.715	665.2
612.127	653.2
612.539	660.8
612.95	659.4
613.362	641.6
613.774	644.2
614.186	654.2
614.599	662
615.011	665.6
615.423	661.6
615.835	662.8
616.248	642.6
616.66	669.2
617.073	648
617.485	658
617.898	672.6
618.311	673.2
618.723	659.4
619.136	690.6
619.549	688.6
619.962	692.4
620.375	652.8
620.788	663.2
621.201	655.2
621.614	663.6
622.028	670.6
622.441	664.6
622.854	682
623.268	656.2
623.681	670.4
624.095	669.6
624.509	668.4
624.922	668.8
625.336	662.2
625.728	669.8
626.142	675.2
626.556	682
626.97	667.2
627.384	660.2
627.799	661.6
628.213	672.6
628.627	667
629.041	660.8
629.456	663
629.87	666.6
630.285	677.8
630.699	663.8
631.093	666.6
631.507	665.2
631.922	668.2
632.337	679.6
632.752	657.6
633.167	666.2
633.582	659.4
633.997	660.8
634.412	656.8
634.806	661.6
635.221	653.8
635.637	682.4
636.052	651.8
636.468	668.6
636.883	686.8
637.299	664.2
637.715	646
638.109	666.4
638.525	648.2
638.941	669.8
639.357	672.4
639.773	679.8
640.189	658
640.584	666
641	664
641.416	653.4
641.832	661.8
642.249	661.4
642.665	666
643.06	669.6
643.477	663
643.894	639.6
644.31	656.2
644.727	657.6
645.123	657.8
645.54	660.8
645.957	674
646.374	679.6
646.77	662.4
647.187	696.2
647.604	668.8
648.021	643
648.439	659.8
648.835	664
649.252	668.4
649.67	668.2
650.088	662.4
650.484	670.6
650.902	675.2
651.32	669
651.738	655.8
652.134	669
652.552	682.8
652.971	661.4
653.389	665.4
653.786	675.8
654.204	691.6
654.622	660.2
655.019	658
655.438	674.4
655.857	665
656.275	669.4
656.673	653.4
657.091	737.4
657.51	653.4
657.908	668.2
658.327	679.8
658.746	655.2
659.144	661.2
659.563	672.8
659.982	666
660.38	651.4
660.8	660.4
661.219	670.2
661.617	669.4
662.037	655.2
662.457	671.8
662.855	649.2
663.275	695.6
663.695	656.4
664.094	657.6
664.514	666.2
664.934	646.6
665.333	670.4
665.753	649.6
666.152	655.2
666.572	652.2
666.993	673.8
667.392	657.4
667.812	663.8
668.212	658.6
668.632	679.6
669.053	655.4
669.453	667.2
669.874	668.8
670.273	660.8
670.694	654.2
671.116	666.6
671.515	669.4
671.937	671
672.337	658.6
672.758	663.8
673.158	679.6
673.58	651.2
673.98	662.8
674.402	676.8
674.824	653.8
675.224	660.8
675.646	657
676.047	659.2
676.469	655.4
676.869	670.8
677.292	665
677.693	655.4
678.115	654.8
678.516	669.8
678.939	664.2
679.34	659.8
679.762	676.4
680.164	658.6
680.586	652.6
680.988	661.2
681.411	687.4
681.812	667.8
682.236	654
682.637	650.6
683.061	651.4
683.462	670.8
683.864	656.2
684.288	667.2
684.69	658
685.114	660.8
685.516	665.4
685.94	649.8
686.342	667.6
686.766	660
687.168	656.4
687.571	679
687.995	656.8
688.398	640
688.822	657
689.225	675.2
689.628	683.2
690.052	657.8
690.456	665.2
690.88	664.8
691.284	647.2
691.687	671
692.112	650.6
692.515	645.6
692.919	655.8
693.344	664.4
693.747	664
694.173	652
694.577	669.8
694.98	664.8
695.406	659.4
695.81	672.2
696.214	668.8
696.64	669.8
697.044	665.2
697.448	672.4
697.874	656
698.279	661.6
698.684	657.2
699.11	649
699.514	657.4
699.919	661.6
700.324	651.2
700.75	654.8
701.156	662.8
701.561	674.8
701.987	662.8
702.393	671.8
702.798	680
703.203	659.4
703.63	656.4
704.036	655.8
704.442	663.2
704.847	651.2
705.274	657.4
705.68	664.8
706.086	673.8
706.492	650
706.92	663.2
707.326	669.8
707.732	651.2
708.139	648.8
708.545	657
708.973	651.6
709.38	654.4
709.786	642.6
710.193	670
710.6	658.8
711.028	642.2
711.435	652
711.842	661.4
712.249	658.2
712.656	660
713.064	670.8
713.492	646.4
713.9	652
714.307	657
714.715	662.8
715.123	661.2
715.53	662.6
715.938	669
716.367	664.2
716.775	648.8
717.184	651.6
717.592	652.6
718	668.8
718.408	707.8
718.816	714.8
719.225	658.4
719.633	657.2
720.042	651.4
720.472	666
720.881	682.6
721.29	668
721.699	652
722.108	666.6
722.517	664.4
722.926	657.6
723.335	679.6
723.744	663.6
724.154	658
724.563	659.4
724.973	670
725.382	654.4
725.792	651.4
726.202	652.2
726.612	680.2
727.022	662.2
727.432	650.6
779.813	670.2
780.223	709
780.634	651.2
781.044	642
781.454	654.4
781.865	670.6
782.276	655
782.686	669
783.097	652.6
783.508	663
783.919	661.4
784.33	671.8
784.741	668.8
785.152	656.8
785.563	642
785.974	661.8
786.386	672.4
786.776	655.6
787.188	657.6
787.599	648
788.011	670
788.423	669.6
788.835	648.4
789.247	642.6
789.659	650.6
790.071	652.6
790.483	709.8
790.874	648.2
791.286	664.6
791.699	662.8
792.111	654.8
792.524	662.2
792.937	664.8
793.349	658.2
793.741	659
794.154	645.6
794.567	673.2
794.98	652.4
795.393	646.8
795.785	688.4
796.198	657
796.612	654.8
797.026	652.2
797.439	641.6
797.831	657.2
798.245	652.2
798.659	652
799.073	661
799.487	648.4
799.88	657.6
800.294	660.8
800.708	655.8
801.123	670.2
801.516	682.8
801.93	641
802.345	644.6
802.76	664.6
803.153	673.6
803.568	665.8
803.983	671.6
804.377	668
804.792	645
805.207	646.2
805.601	657.4
806.016	700.2
806.432	652.4
806.826	683
807.242	677.4
807.658	660.2
808.052	659.4
808.468	652
808.884	645.8
809.279	660.6
809.695	666
810.111	682.8
810.506	668.6
810.922	675
811.339	655.2
811.734	663.2
812.151	654.8
812.546	650.4
812.963	650
813.38	660.2
813.776	657.8
814.193	681.2
814.589	652.8
815.006	661.6
815.402	643.4
815.82	650.4
816.237	656.8
816.633	656.6
817.051	637.6
817.448	660.8
817.866	642.8
818.262	677
818.68	657.8
819.077	648.4
819.495	655.4
819.892	702.2
820.311	645.2
820.708	646.4
821.127	653.8
821.524	669.8
821.943	649.4
822.34	676.2
822.759	651.8
823.157	655.8
823.576	673.2
823.974	656.8
824.393	720.4
824.791	656.8
825.189	649.8
825.609	659.4
826.007	652.6
826.427	643.4
826.826	657
827.246	663.2
827.644	638
828.043	665
828.463	649
828.862	660.6
829.261	662.8
829.682	644.8
830.081	664
830.502	648.8
830.901	664
831.301	642
831.722	640.6
832.121	654.8
832.521	647.4
832.943	661.4
833.342	663.4
833.742	646.2
834.164	663
834.564	648.4
834.965	650
835.386	652.2
835.787	645
836.188	657.4
836.588	655.8
837.01	656.4
837.411	643.8
837.812	657.8
838.213	659.8
838.636	649.4
839.037	731.8
839.438	652.2
839.84	661
840.263	667.4
840.664	659.4
841.066	645.8
841.468	657.8
841.891	643
842.293	666
842.695	653
843.098	663.8
843.5	639.6
843.902	657.6
844.326	665
844.729	647
845.131	669.8
845.534	661.2
845.937	678.2
846.34	674.4
846.764	650.4
847.167	655
847.571	647.8
847.974	665.2
848.377	649.4
848.781	715.2
849.184	672
849.588	642.4
849.992	647.6
850.396	656
850.821	679.2
851.225	660
851.63	651.4
852.034	675.6
852.438	652.4
852.843	702.2
853.247	648.4
853.652	652.2
854.057	670
854.462	656.4
854.867	663.4
855.272	689.8
855.677	657.4
856.082	649.6
