#lambda/nm	C1
208.295	539.2
208.67	490
209.045	457
209.419	454.4
209.794	694.6
210.169	669.4
210.544	812
210.919	699.8
211.295	679.2
211.67	694.4
212.045	688
212.421	686.4
212.796	730.8
213.172	675.2
213.547	681.4
213.923	682.4
214.299	680
214.675	693.8
215.051	683.2
215.427	695.2
215.803	711.8
216.179	688.4
216.555	675.2
216.932	693
217.308	688.8
217.684	685.8
218.061	694.2
218.438	693.8
218.814	680.2
219.191	689.2
219.568	686.8
219.945	684.4
220.322	696.4
220.699	688.8
221.076	696.2
221.453	679.6
221.83	677.2
222.208	684.4
222.585	682.2
222.962	685.6
223.34	693.8
223.717	684.6
224.095	683
224.473	677.4
224.851	672
225.229	669.8
225.607	712.8
225.985	686
226.363	689.8
226.741	680.2
227.119	684
227.497	700.2
227.876	666.8
228.254	697.2
228.633	690.4
229.011	696.8
229.39	686.2
229.769	689.2
230.148	696.2
230.527	710.2
230.905	690.4
231.284	688.4
231.664	685
232.043	699.8
232.422	705.4
232.801	683.6
233.181	692.4
233.56	681
233.94	689.6
234.319	675.4
234.699	688.6
235.079	734.2
235.458	735.2
235.838	714.6
236.218	679.8
236.598	680
236.978	678
237.358	683.2
237.738	681.2
238.119	699.6
238.499	668.6
238.88	694
239.26	705.6
239.641	674.4
240.021	687.6
240.402	691
240.783	683.6
241.163	679.6
241.544	691.2
241.925	694
242.306	703.6
242.687	680.6
243.069	690
243.45	688.4
243.831	689.4
244.212	682.8
244.594	718.2
244.975	700.4
245.357	697.6
245.739	677
246.12	694
246.502	705
246.884	689.6
247.266	685.2
247.648	687.2
248.03	713.2
248.412	686.2
248.794	697
249.176	696.8
249.559	708.4
249.941	674.8
250.323	678.4
250.706	688.6
251.089	689.8
251.471	695.4
251.854	681.4
252.237	677
252.62	702.2
253.002	681.8
253.385	683.4
253.769	704.4
254.152	685.4
254.535	692.4
254.918	671.8
255.301	681.8
255.685	685.2
256.068	677
256.452	717.2
256.835	700.6
257.219	693.2
257.603	709
257.986	677.4
258.37	688.4
258.754	674.6
259.138	691
259.522	695.2
259.906	688.4
260.29	685.4
260.675	690.4
261.059	698.6
261.443	678
261.828	694.6
262.212	689.8
262.597	678.6
262.981	677.2
263.366	698.8
263.751	684.6
264.136	674
264.521	692.2
264.906	685.8
265.291	698.6
265.676	679.6
266.061	696
266.446	707
266.831	689.2
267.217	706.2
267.602	688.2
267.987	687.4
268.373	686.6
268.759	699.8
269.144	690.6
269.53	688.2
269.916	683.8
270.302	681
270.688	692
271.074	681
271.46	707.6
271.846	721.4
272.232	679.2
272.618	684.6
273.004	679.4
273.391	703.4
273.777	712
274.164	690.2
274.55	697.8
274.937	698
275.324	685
275.71	698.6
276.097	686.6
276.484	675.8
276.871	696.2
277.258	691.4
277.645	670.6
278.032	684.4
278.419	678.8
278.807	690.4
279.194	675.6
279.581	679
279.969	699
280.356	685
280.744	703
281.131	707.4
281.519	701.4
281.907	687
282.295	683.2
282.682	699.6
283.07	687.8
283.458	697
283.846	703.4
284.235	701.2
284.623	701.6
285.011	675.8
285.399	684.2
285.788	681.6
286.176	673.6
286.565	697.6
286.953	674.2
287.342	680
287.731	680.4
288.119	676.6
288.508	690.6
288.897	681.6
289.286	675.8
289.675	686.8
290.064	697.2
290.453	677
290.821	683
291.21	711
291.599	684.6
291.989	691.8
292.378	701
292.768	707.6
293.157	698.8
293.547	700.2
293.936	687.8
294.326	673.2
294.716	699.8
295.106	684.8
295.496	693.2
295.886	707.8
296.276	682.2
296.666	680.2
297.056	687.2
297.446	678
297.836	704.4
298.227	682.6
298.617	693.2
299.008	702.2
299.398	691.4
299.789	685.6
300.179	695.2
300.57	708.4
300.961	686
301.352	685.2
301.742	699.2
302.133	696.2
302.524	695.8
302.915	697.8
303.307	685.6
303.698	691
304.089	704
304.48	686.6
304.872	697.2
305.263	685.6
305.655	683.8
306.046	698.6
306.438	698.8
306.829	682.6
307.221	700.8
307.613	701.6
308.005	711.6
308.397	707.2
308.789	708.4
309.181	712.4
309.573	705.2
309.965	702.8
310.357	689
310.749	705.6
311.142	683.6
311.534	689
311.926	706.2
312.319	695.4
312.711	689.2
313.104	715
313.497	687.4
313.889	730.6
314.282	708.2
314.675	717.2
315.068	689
315.461	714
315.854	726.6
316.247	695.4
316.64	691
317.033	698.6
317.405	703.2
317.798	695.2
318.192	699.2
318.585	688.6
318.979	701
319.372	683
319.766	698.6
320.16	693.6
320.553	713
320.947	711
321.341	682
321.735	685.8
322.129	669.6
322.523	722.2
322.917	683.2
323.311	709.2
323.705	695.6
324.099	706
324.494	717
324.888	708.4
325.282	696.4
325.677	701.8
326.071	692.6
326.466	710.2
326.861	693.2
327.255	702.8
327.65	705.8
328.045	715
328.44	702.6
328.835	693.2
329.23	681.4
329.625	713.4
330.02	689
330.415	714.6
330.81	701.2
331.206	696.4
331.601	686.6
331.996	699.4
332.37	720.8
332.766	676.6
333.161	720.4
333.557	687.2
333.953	697.6
334.348	1058.2
334.744	697
335.14	692.2
335.536	686.6
335.932	703.8
336.328	694
336.724	697
337.12	691.6
337.516	695.4
337.913	692
338.309	704.6
338.705	687.8
339.102	708.6
339.498	687.6
339.895	703
340.291	689.8
340.688	702.8
341.085	684
341.481	699.8
341.878	684
342.275	723.2
342.672	688.4
343.069	691.8
343.466	677
343.842	695.8
344.239	679.8
344.636	689.8
345.033	681.2
345.431	680.4
345.828	694.8
346.225	686
346.623	728.2
347.02	687.6
347.418	707.2
347.816	707.8
348.213	685.2
348.611	702.6
349.009	679.2
349.407	702.6
349.805	682.6
350.203	675.6
350.601	697.8
350.999	685.4
351.397	757.2
351.795	695.8
352.193	702.2
352.57	696.2
352.969	703
353.367	678.2
353.766	681.8
354.164	688.2
354.563	706.2
354.961	685.6
355.36	677.6
355.759	689.2
356.158	682.2
356.557	682.8
356.956	678.2
357.355	678.2
357.754	692.6
358.153	701.8
358.552	713.6
358.951	684.8
359.35	699.8
359.75	679.2
360.149	680
360.527	671.4
360.926	671
361.326	688.8
361.726	682.6
362.125	673.8
362.525	695.8
362.925	684.4
363.325	689.2
363.724	677
364.124	678.8
364.524	684
364.924	684.2
365.324	696
365.725	672.6
366.125	686.6
366.525	687.6
366.904	670.8
367.304	674.4
367.705	703.8
368.105	695.2
368.506	682.4
368.906	682.2
369.307	678.6
369.708	690.6
370.108	667.6
370.509	692.4
370.91	677.6
371.311	677.6
371.712	686.2
372.113	684
372.514	669.4
372.894	683
373.295	677.2
373.696	694
374.097	688
374.499	722.6
374.9	682
375.301	672.4
375.703	679
376.105	676.6
376.506	687.4
376.908	688.2
377.309	673.8
377.711	677
378.113	677.6
378.493	675.8
378.895	666.2
379.297	690
379.699	678.4
380.102	691
380.504	687.4
380.906	682.6
381.308	714
381.71	674.6
382.113	694.6
382.515	681.2
382.918	686.4
383.299	678.2
383.701	690
384.104	684.2
384.507	666.8
384.909	681.4
385.312	662.2
385.715	669.2
386.118	685.2
386.521	665.6
386.924	694.4
387.327	671.8
387.709	670.2
388.112	661.8
388.515	680.4
388.918	680.2
389.322	685
389.725	667.4
390.129	707.2
390.532	683.8
390.936	670.4
391.339	668.4
391.743	675
392.125	669
392.529	680.6
392.933	694.4
393.337	690
393.74	678.2
394.144	678.8
394.548	667.8
394.953	687
395.357	689.2
395.761	679
396.144	674
396.548	673.6
396.952	675.2
397.357	673.4
397.761	677.8
398.166	682.2
398.57	679
398.975	670.6
399.379	692.6
399.763	738.2
400.168	680.8
400.572	688.8
400.977	677.4
401.382	702.2
401.787	697.2
402.192	695.2
402.597	697.2
403.002	669.4
403.386	697.4
403.791	713.8
404.197	681.6
404.602	684.2
405.007	688.4
405.413	673
405.818	684.8
406.224	672.6
406.608	692.8
407.014	673.2
407.42	697.6
407.825	680.6
408.231	693
408.637	684.2
409.043	706.2
409.449	679.4
409.834	682
410.24	678.6
410.646	688.4
411.052	692.2
411.458	689.2
411.865	689.8
412.271	704.2
412.677	684.6
413.062	685.8
413.469	667.2
413.875	711.8
414.282	701.2
414.689	689
415.095	698
415.502	688.6
415.888	686
416.294	664.8
416.701	736.6
417.108	683.4
417.515	697.4
417.923	684.8
418.33	710.8
418.715	696.4
419.123	687.4
419.53	680.4
419.937	687.4
420.345	697.2
420.752	674.6
421.16	698.8
421.546	692.2
421.953	695.2
422.361	673.6
422.769	683.6
423.177	677.6
423.585	712
423.992	704
424.379	700.4
424.787	692
425.195	709.2
425.603	677.8
426.011	697
426.419	704.2
426.806	697.8
427.214	688.2
427.623	698.6
428.031	707.6
428.44	695.8
428.848	704.8
429.235	705
429.644	688.2
430.053	697.6
430.461	705.8
430.87	721.8
431.279	706
431.666	676.2
432.075	697.6
432.484	694.6
432.893	681.4
433.302	714.6
433.711	752
434.099	699
434.508	694
434.918	675.4
435.327	713
435.737	703.8
436.125	699.8
436.534	711.2
436.944	691.8
437.353	708
437.763	727.6
438.173	698.6
438.561	723.4
438.971	692.8
439.381	712
439.791	707
440.201	697
440.589	703.4
440.999	724.8
441.409	718.6
441.819	700.2
442.23	723.4
442.619	727
443.029	708.6
443.439	716.8
443.85	729
444.26	739.6
444.649	721.8
445.06	726.2
445.471	708.8
445.881	719.2
446.292	735.8
446.682	733.6
447.092	698.2
447.503	777.2
447.914	714.6
448.325	720.4
448.715	717
449.126	709.8
449.537	713.8
449.948	722.6
450.338	722.4
450.75	728.6
451.161	717.8
451.572	723.4
451.984	716.4
452.374	697.2
452.786	720.2
453.197	728.2
453.609	729.8
453.999	701
454.411	717.6
454.823	724.8
455.235	720.2
455.647	709.8
456.037	732
456.449	707.6
456.862	725.2
457.274	729.8
457.665	717.4
458.077	724.6
458.489	752.2
458.902	728.4
459.293	726.8
459.705	724.6
460.118	705.4
460.53	718.4
460.921	717.8
461.334	730.6
461.747	724
462.16	738.8
462.551	736.8
462.964	728.2
463.377	707
463.79	714
464.182	724.8
464.595	708
465.008	716
465.421	738.4
465.813	725
466.226	728.2
466.64	721.6
467.053	784.8
467.445	732.4
467.859	739.2
468.272	730.2
468.686	727.4
469.078	725
469.492	715.4
469.906	710.6
470.298	728.6
470.712	706.8
471.126	788
471.54	705.8
471.933	708.2
472.347	725.4
472.761	711.6
473.175	704
473.568	721
473.982	703
474.397	726
474.79	720.6
475.204	724
475.619	713.8
476.033	726.2
476.426	723.2
476.841	711.4
477.256	741.2
477.649	709.4
478.064	710.2
478.479	711.8
478.872	717.2
479.287	716.4
479.702	707.8
480.118	711.6
480.511	704.4
480.927	708.2
481.342	702.8
481.736	716
482.151	701
482.566	718.2
482.96	701.2
483.376	721.6
483.792	689.8
484.186	715.8
484.602	707.8
485.017	715.4
485.412	713
485.827	711.8
486.243	707
486.638	745.6
487.054	720
487.47	720.6
487.865	707
488.281	707.8
488.697	705
489.092	703.6
489.508	696
489.925	720.6
490.32	704
490.736	722
491.153	720.6
491.548	711.2
491.964	722.2
492.381	697
492.776	708.6
493.193	711
493.61	706.8
494.006	704.4
494.422	702.4
494.84	695.2
495.235	711.2
495.652	701
496.069	696.8
496.465	691.2
496.883	693
497.3	739.4
497.696	688
498.113	702.6
498.509	689
498.927	689.6
499.344	695.4
499.741	692
500.158	711.2
500.576	715.6
500.973	693
501.39	697.2
501.787	695.4
502.205	701.4
502.623	701.8
503.02	684.2
503.438	699.4
503.856	700.8
504.253	707.2
504.671	696.2
505.068	687.6
505.486	705
505.905	716.2
506.302	695.6
506.72	715.8
507.118	698.6
507.536	707.4
507.955	678.8
508.352	697.4
508.771	699
509.169	697.4
509.587	681.4
510.006	697
510.404	677.6
510.823	687.6
511.221	699.6
511.64	688.2
512.038	713
512.457	699.4
512.877	695.2
513.275	686.6
513.694	694
514.092	698.8
514.512	695.8
514.91	690.6
515.33	695
515.749	686.2
516.148	705.4
516.568	700.6
516.966	697.8
517.386	688.6
517.785	693
518.205	692.2
518.603	683.6
519.024	683.8
519.444	693
519.843	697.2
520.263	709.2
520.662	693.8
521.082	695
521.481	694.2
521.902	691
522.301	693.2
522.722	700.6
523.121	697.2
523.542	680.6
523.963	686.4
524.362	692.2
524.783	689.8
525.183	690
525.604	695.6
526.003	684.8
526.425	669.2
526.824	686.2
527.246	696.2
527.646	698.4
528.067	691.6
528.467	689.8
528.888	687.2
529.289	687.4
529.71	682.4
530.11	684.6
530.532	689.2
530.932	679.4
531.354	680.2
531.755	719
532.176	697.4
532.577	682.4
532.999	683.2
533.4	682.4
533.822	690.8
534.223	693.2
534.645	679.8
535.046	673.2
535.468	668
535.869	698.4
536.292	679.8
536.693	727.4
537.115	683.2
537.516	668.4
537.939	678.6
538.34	703
538.742	698
539.165	684.6
539.566	672.8
539.989	678.8
540.391	673.4
540.814	674.8
541.216	683.2
541.639	688.2
542.041	685
542.464	672.2
542.866	679
543.268	669.6
543.691	686.6
544.093	685.8
544.517	700.6
544.919	676.6
545.343	710.8
545.745	667.2
546.147	678.8
546.571	677.6
546.974	675
547.398	682.8
547.8	697
548.224	677
548.627	664.8
549.03	678.4
549.454	671.6
549.857	675.6
550.281	670.8
550.684	674.8
551.087	692.8
551.512	685.8
551.915	690
552.34	672.4
552.743	679
553.146	676.8
553.571	683.2
553.975	700.8
554.399	672.4
554.803	734.4
555.207	666.2
555.632	672.2
556.036	673
556.461	672.8
556.865	678.2
557.268	669.2
557.694	671.6
558.098	683.8
558.502	693.4
558.927	669.2
559.332	674.6
559.736	675.8
560.162	683.4
560.566	681.4
560.992	680
561.396	673.4
561.801	669.4
562.227	678.2
562.631	676.2
563.036	673.2
563.462	679.8
563.867	677
564.272	665.6
564.698	672
565.103	658.4
565.508	698.2
565.935	679
566.34	676.6
566.745	675.8
567.172	674
567.577	700.4
567.982	683
568.409	671.2
568.815	654.4
569.22	670.6
569.626	685.6
570.053	653.2
570.459	673.8
570.865	678
571.292	681.8
571.698	672.4
572.104	661.4
572.531	672.6
572.937	677.6
573.343	669.8
573.75	669
574.177	671.4
574.583	675.6
574.99	681.4
575.396	685.6
575.824	670.6
576.231	669
576.637	665.8
577.065	703.2
577.472	674.6
577.879	667.2
578.286	689
578.714	659.8
579.121	673.2
579.528	672.6
579.935	675
580.364	664.8
580.771	660.6
581.178	651.6
581.585	676.8
582.014	684.6
582.421	657.4
582.829	661.2
583.236	680.2
583.644	661
584.073	672.2
584.481	665
584.889	666.6
585.296	670.2
585.726	665.4
586.134	652.4
586.542	658.6
586.95	686
587.358	646
587.787	664.6
588.196	663
588.604	669.4
589.012	666.4
589.421	659.2
589.851	658.8
590.259	668.6
590.668	668.6
591.076	714.2
591.485	652.2
591.894	669.6
592.324	685.2
592.733	680.4
593.142	650.2
593.551	670.2
593.96	709.8
594.369	660.4
594.8	655
595.209	665
595.618	645
596.028	663.8
596.437	652.2
596.847	663
597.256	665.2
597.687	671.4
598.097	666.2
598.507	647
598.917	673.8
599.327	667.6
599.736	663
600.146	679.8
600.556	660.6
600.988	685.2
601.398	658.6
601.808	684
602.219	653.6
602.629	663.6
603.039	658.2
603.45	698.8
603.86	664.4
604.271	693
604.703	670.8
605.114	676.6
605.525	657.2
605.935	676.4
606.346	702.4
606.757	667.2
607.168	668.2
607.579	664.6
607.99	686.6
608.402	667.8
608.813	671.2
609.224	652
609.636	654.8
610.047	663.4
610.48	670.6
610.892	672.6
611.303	670.6
611.715	666.6
612.127	658
612.539	668.2
612.95	669.4
613.362	657.2
613.774	659.4
614.186	659.6
614.599	655.6
615.011	678.8
615.423	662.8
615.835	651.6
616.248	663.4
616.66	666
617.073	653.4
617.485	662
617.898	683.2
618.311	664.8
618.723	665.2
619.136	698.4
619.549	668.4
619.962	688.4
620.375	668.4
620.788	678.4
621.201	660.4
621.614	670
622.028	663.8
622.441	666
622.854	682
623.268	652.6
623.681	677.6
624.095	669.8
624.509	668
624.922	672.6
625.336	649
625.728	656.2
626.142	668.2
626.556	677.6
626.97	675.8
627.384	665
627.799	666.2
628.213	682
628.627	665.8
629.041	655.4
629.456	656
629.87	661.8
630.285	676
630.699	675.6
631.093	670.8
631.507	671.2
631.922	668.6
632.337	691.2
632.752	661
633.167	663.2
633.582	667.2
633.997	661.6
634.412	664
634.806	666.2
635.221	658.4
635.637	674.4
636.052	646.6
636.468	672.8
636.883	683.8
637.299	667.8
637.715	646
638.109	657.4
638.525	658
638.941	681.2
639.357	662.2
639.773	677
640.189	662.6
640.584	664.2
641	659.6
641.416	651.8
641.832	663.4
642.249	660.2
642.665	665.6
643.06	659.4
643.477	667.6
643.894	643.4
644.31	659.8
644.727	660.8
645.123	662.4
645.54	654
645.957	657
646.374	681
646.77	661.2
647.187	692
647.604	669.4
648.021	643.8
648.439	652.8
648.835	669.6
649.252	667
649.67	660.4
650.088	673.6
650.484	673.2
650.902	672
651.32	678.2
651.738	659.8
652.134	675.8
652.552	680
652.971	676.4
653.389	659.2
653.786	679
654.204	690.6
654.622	664.4
655.019	661.4
655.438	668.8
655.857	665.8
656.275	669.4
656.673	658.6
657.091	749
657.51	659.4
657.908	667.4
658.327	678.4
658.746	657
659.144	660
659.563	674.2
659.982	669
660.38	663.2
660.8	665.4
661.219	681
661.617	662.8
662.037	666.6
662.457	685.8
662.855	648
663.275	701.6
663.695	665
664.094	665.4
664.514	666.6
664.934	657
665.333	672
665.753	655.2
666.152	660.2
666.572	661.6
666.993	678.4
667.392	655.6
667.812	653.8
668.212	655.4
668.632	666.4
669.053	659.8
669.453	660.6
669.874	667.6
670.273	665.6
670.694	657.6
671.116	677.4
671.515	670.2
671.937	662.8
672.337	661.6
672.758	656
673.158	670.8
673.58	646.8
673.98	670.6
674.402	672.4
674.824	664.8
675.224	657
675.646	654.6
676.047	651
676.469	655.4
676.869	676.4
677.292	666.2
677.693	663.8
678.115	658
678.516	663.2
678.939	668.4
679.34	658.6
679.762	684.6
680.164	673.6
680.586	664.2
680.988	672.2
681.411	692.8
681.812	662.8
682.236	654.2
682.637	649.4
683.061	651.8
683.462	668.4
683.864	673
684.288	663.2
684.69	657
685.114	673
685.516	673
685.94	652.2
686.342	673.8
686.766	652.4
687.168	652.6
687.571	672.8
687.995	665
688.398	656.4
688.822	646.4
689.225	678.4
689.628	682.2
690.052	648
690.456	664
690.88	662.4
691.284	652.6
691.687	660.4
692.112	654.4
692.515	650.6
692.919	666
693.344	658.6
693.747	660
694.173	649.8
694.577	678.4
694.98	660.2
695.406	661.6
695.81	664.2
696.214	667
696.64	657.8
697.044	667
697.448	670.8
697.874	658
698.279	659
698.684	656.6
699.11	658.6
699.514	657.4
699.919	661.4
700.324	655.8
700.75	657.4
701.156	664.4
701.561	670
701.987	660.8
702.393	676
702.798	669.4
703.203	652
703.63	649.6
704.036	654.4
704.442	655.2
704.847	643
705.274	657.6
705.68	662.2
706.086	666.8
706.492	646
706.92	651.2
707.326	679.4
707.732	664.4
708.139	654.8
708.545	652.8
708.973	656.8
709.38	652.8
709.786	649.6
710.193	680.2
710.6	664.6
711.028	653
711.435	662.2
711.842	665.8
712.249	652.4
712.656	658.8
713.064	682.8
713.492	652
713.9	660.4
714.307	664.2
714.715	672
715.123	669.6
715.53	660.4
715.938	673.8
716.367	663.2
716.775	659
717.184	655.8
717.592	661
718	665
718.408	690.2
718.816	714.2
719.225	666.2
719.633	666.2
720.042	660.6
720.472	655.2
720.881	682.8
721.29	668.8
721.699	654.2
722.108	671.2
722.517	667.6
722.926	658.2
723.335	671
723.744	657.2
724.154	670
724.563	670.4
724.973	667
725.382	662.6
725.792	656
726.202	655.8
726.612	683
727.022	667.2
727.432	656
779.813	662.2
780.223	706.4
780.634	656.2
781.044	655.8
781.454	657.4
781.865	673.2
782.276	655.2
782.686	674
783.097	662.6
783.508	658.8
783.919	659.4
784.33	673.6
784.741	671.8
785.152	661.2
785.563	647
785.974	657.6
786.386	665.4
786.776	665.6
787.188	660.4
787.599	645.6
788.011	665.8
788.423	661.6
788.835	651.6
789.247	654.6
789.659	652.8
790.071	649.2
790.483	698
790.874	653.4
791.286	665.6
791.699	647
792.111	663.6
792.524	666.8
792.937	659.6
793.349	646.4
793.741	656.6
794.154	649.8
794.567	681.2
794.98	659.4
795.393	642
795.785	678.4
796.198	648.8
796.612	664.2
797.026	645.4
797.439	631.4
797.831	655
798.245	649.2
798.659	657.4
799.073	658.8
799.487	643.6
799.88	661.6
800.294	663
800.708	666.8
801.123	661.8
801.516	680.2
801.93	647.8
802.345	642
802.76	659.8
803.153	675.6
803.568	673.2
803.983	673.8
804.377	664.4
804.792	648.8
805.207	640.8
805.601	660.2
806.016	700
806.432	644.8
806.826	700
807.242	674.2
807.658	661.8
808.052	656.6
808.468	648.4
808.884	658.2
809.279	654
809.695	674.4
810.111	682.2
810.506	662.2
810.922	684.4
811.339	648.4
811.734	668.2
812.151	658.6
812.546	651.4
812.963	648.2
813.38	658.8
813.776	665.2
814.193	685
814.589	649
815.006	653
815.402	649.2
815.82	658
816.237	657.8
816.633	664
817.051	643.4
817.448	653
817.866	645.6
818.262	678
818.68	649.4
819.077	651
819.495	654.6
819.892	701.6
820.311	649.4
820.708	653.8
821.127	645.6
821.524	675.2
821.943	661
822.34	671.8
822.759	661.8
823.157	654.2
823.576	665.6
823.974	671.4
824.393	741
824.791	643
825.189	645.4
825.609	646.2
826.007	650.2
826.427	642.2
826.826	660.4
827.246	660.4
827.644	637.6
828.043	670.8
828.463	659.2
828.862	671
829.261	657.2
829.682	643.8
830.081	655.6
830.502	654.6
830.901	663
831.301	652
831.722	643.8
832.121	658.6
832.521	645
832.943	658
833.342	657.6
833.742	647.6
834.164	658.2
834.564	641.8
834.965	657.4
835.386	657.8
835.787	653.6
836.188	650.2
836.588	649.4
837.01	654.2
837.411	642
837.812	674.4
838.213	661.2
838.636	660.6
839.037	739.4
839.438	665.6
839.84	664.6
840.263	669.8
840.664	662.4
841.066	655.8
841.468	658.6
841.891	646
842.293	666.8
842.695	659.2
843.098	663
843.5	649.6
843.902	663.8
844.326	655.6
844.729	653.8
845.131	661.2
845.534	658.8
845.937	667.6
846.34	675.8
846.764	647
847.167	657.4
847.571	641.2
847.974	645
848.377	644.6
848.781	699.8
849.184	664.8
849.588	645
849.992	660.2
850.396	662.4
850.821	677.8
851.225	660.6
851.63	650
852.034	670.2
852.438	656.4
852.843	700.2
853.247	652
853.652	649.2
854.057	673.2
854.462	663
854.867	649.4
855.272	686.8
855.677	655
856.082	641
856.487	641.4
856.893	640.2
857.298	651.6
