#lambda/nm	C1
208.295	539.2
208.67	494.8
209.045	455
209.419	454.4
209.794	687
210.169	676.4
210.544	809.2
210.919	698.4
211.295	690.6
211.67	687.2
212.045	695.4
212.421	685.8
212.796	730.6
213.172	685
213.547	679.8
213.923	680.8
214.299	677.2
214.675	692
215.051	686.4
215.427	698.6
215.803	706.4
216.179	693
216.555	677.2
216.932	690.4
217.308	691
217.684	688.6
218.061	691.8
218.438	689.8
218.814	673.4
219.191	694
219.568	683.4
219.945	679
220.322	696
220.699	686.6
221.076	702.8
221.453	688
221.83	688
222.208	673
222.585	679
222.962	696.8
223.34	687.8
223.717	685.4
224.095	686.6
224.473	694.2
224.851	682
225.229	677.6
225.607	710.8
225.985	676.4
226.363	696
226.741	687.2
227.119	686
227.497	698.6
227.876	675.2
228.254	698.4
228.633	685.2
229.011	685.4
229.39	691.2
229.769	687
230.148	692
230.527	712.8
230.905	691.2
231.284	695
231.664	676.4
232.043	699.6
232.422	689.8
232.801	686.2
233.181	690.6
233.56	681.6
233.94	690
234.319	672.2
234.699	689.4
235.079	741
235.458	732
235.838	703.2
236.218	685
236.598	681.4
236.978	686
237.358	684.2
237.738	693.6
238.119	696.4
238.499	672.8
238.88	685.6
239.26	706.8
239.641	675.6
240.021	688.2
240.402	688.6
240.783	685.4
241.163	693.6
241.544	692
241.925	682.6
242.306	714
242.687	678.8
243.069	686.8
243.45	694.8
243.831	676
244.212	686.4
244.594	726.6
244.975	692.2
245.357	689.8
245.739	678.6
246.12	693.2
246.502	702.4
246.884	681
247.266	694.8
247.648	693.8
248.03	714.6
248.412	702.6
248.794	698.4
249.176	684
249.559	696.2
249.941	680.4
250.323	672.6
250.706	686
251.089	688
251.471	688.4
251.854	689.8
252.237	683.4
252.62	696.6
253.002	686.6
253.385	688.2
253.769	706.4
254.152	694.6
254.535	692
254.918	674.8
255.301	688.2
255.685	687.6
256.068	676.2
256.452	714.8
256.835	700.6
257.219	686.8
257.603	696.8
257.986	680
258.37	696.2
258.754	673.2
259.138	694.8
259.522	696.4
259.906	674.8
260.29	684.4
260.675	679.6
261.059	685.4
261.443	673
261.828	698.6
262.212	687
262.597	680
262.981	682.2
263.366	698.4
263.751	687.2
264.136	679
264.521	677.2
264.906	677.2
265.291	698.4
265.676	681.2
266.061	696.4
266.446	707
266.831	690.2
267.217	708.4
267.602	689.6
267.987	689.4
268.373	689
268.759	693.4
269.144	701
269.53	687
269.916	678.4
270.302	681.2
270.688	687.4
271.074	685
271.46	697
271.846	722.6
272.232	691.6
272.618	683.8
273.004	688.2
273.391	704.2
273.777	708.2
274.164	697.6
274.55	697.6
274.937	701.6
275.324	696.8
275.71	694.2
276.097	702.2
276.484	685.2
276.871	693
277.258	691.6
277.645	675.6
278.032	688.2
278.419	677.4
278.807	681
279.194	682.2
279.581	674.2
279.969	699.4
280.356	688.4
280.744	692.2
281.131	718
281.519	702.4
281.907	680.4
282.295	688.8
282.682	701
283.07	693.4
283.458	700.6
283.846	701
284.235	697.4
284.623	701.2
285.011	678
285.399	692.4
285.788	686.6
286.176	670.8
286.565	701.4
286.953	685.8
287.342	681
287.731	685.2
288.119	681.4
288.508	688
288.897	689.6
289.286	680.8
289.675	692.8
290.064	699.8
290.453	684
290.821	690.4
291.21	711.8
291.599	683.8
291.989	692.6
292.378	705
292.768	714.4
293.157	695.2
293.547	704.6
293.936	693.8
294.326	680.2
294.716	695.4
295.106	683.2
295.496	702
295.886	698.6
296.276	691
296.666	685.4
297.056	681.8
297.446	682.4
297.836	712.6
298.227	690.6
298.617	695.4
299.008	702.2
299.398	684.2
299.789	683
300.179	698
300.57	708.6
300.961	684.6
301.352	675.6
301.742	700.2
302.133	689.6
302.524	682
302.915	697
303.307	681.2
303.698	706.8
304.089	699.6
304.48	696
304.872	695.4
305.263	693.4
305.655	679.2
306.046	700.8
306.438	695.8
306.829	680.4
307.221	712.6
307.613	701.2
308.005	700.6
308.397	702.2
308.789	714.4
309.181	730.4
309.573	708.4
309.965	713.4
310.357	685
310.749	704.6
311.142	688.2
311.534	695.8
311.926	698.2
312.319	690.4
312.711	685.8
313.104	699.4
313.497	700.8
313.889	733.6
314.282	708.8
314.675	728
315.068	695.4
315.461	704.4
315.854	733.2
316.247	711.4
316.64	692.6
317.033	700.8
317.405	708.4
317.798	702
318.192	701
318.585	678.8
318.979	698.4
319.372	681.8
319.766	685
320.16	700.2
320.553	711.6
320.947	715.4
321.341	680.4
321.735	691
322.129	667.4
322.523	714
322.917	680
323.311	703.4
323.705	696.4
324.099	697.2
324.494	715
324.888	707.4
325.282	687.4
325.677	718
326.071	692
326.466	708.6
326.861	694.2
327.255	711.6
327.65	706
328.045	712.8
328.44	705
328.835	694.8
329.23	692.6
329.625	719.8
330.02	679.2
330.415	725.8
330.81	699.2
331.206	699.4
331.601	687.2
331.996	698.4
332.37	719.4
332.766	686
333.161	726.8
333.557	683.6
333.953	698.6
334.348	1185.4
334.744	688.4
335.14	688
335.536	684.4
335.932	698.6
336.328	682.2
336.724	701
337.12	687.6
337.516	699
337.913	694.6
338.309	699.2
338.705	699.8
339.102	700.6
339.498	685.8
339.895	714.4
340.291	684.8
340.688	703
341.085	683.2
341.481	692.8
341.878	691.2
342.275	713.4
342.672	686
343.069	684.4
343.466	679
343.842	701.6
344.239	684.4
344.636	695.6
345.033	679.8
345.431	679.4
345.828	691.2
346.225	683.8
346.623	729.6
347.02	693.8
347.418	701.4
347.816	709.6
348.213	679.2
348.611	695.6
349.009	684.6
349.407	711
349.805	673.8
350.203	678.6
350.601	708.2
350.999	687.4
351.397	744.4
351.795	698
352.193	705.4
352.57	694.8
352.969	697.2
353.367	679
353.766	680
354.164	681
354.563	702.6
354.961	692
355.36	684
355.759	682.4
356.158	676
356.557	695.4
356.956	677.6
357.355	675
357.754	689.8
358.153	707.6
358.552	715
358.951	691.6
359.35	696
359.75	693
360.149	679.6
360.527	675
360.926	667.4
361.326	683
361.726	689
362.125	680.4
362.525	694
362.925	672
363.325	680.8
363.724	680.6
364.124	678.2
364.524	674.8
364.924	676.8
365.324	700
365.725	664.6
366.125	692
366.525	685
366.904	677.4
367.304	667.8
367.705	704.6
368.105	699.8
368.506	681.4
368.906	687
369.307	680.6
369.708	689
370.108	668.2
370.509	700.6
370.91	680.4
371.311	680
371.712	691
372.113	678.4
372.514	673
372.894	671.6
373.295	675.8
373.696	692.4
374.097	691
374.499	712.4
374.9	683.4
375.301	674.4
375.703	687.2
376.105	667.4
376.506	684.2
376.908	689.6
377.309	687.4
377.711	684.2
378.113	672
378.493	693.2
378.895	680.2
379.297	692.8
379.699	671.6
380.102	688.8
380.504	682
380.906	673.2
381.308	719.4
381.71	684.4
382.113	692.6
382.515	685.8
382.918	688.6
383.299	679.8
383.701	695.4
384.104	684.6
384.507	660.4
384.909	690
385.312	659.2
385.715	673
386.118	682
386.521	665
386.924	699.4
387.327	673.6
387.709	664.6
388.112	661.6
388.515	675.8
388.918	687.6
389.322	682.6
389.725	669
390.129	692.2
390.532	690.8
390.936	678.6
391.339	673.4
391.743	677
392.125	665.2
392.529	693.8
392.933	696.8
393.337	679
393.74	680.8
394.144	678
394.548	681.2
394.953	675.6
395.357	684.6
395.761	682.2
396.144	691.4
396.548	680.8
396.952	681.8
397.357	689.6
397.761	677.4
398.166	674.6
398.57	678.6
398.975	675
399.379	685.6
399.763	748.4
400.168	684
400.572	680.6
400.977	681.6
401.382	708.4
401.787	698.4
402.192	704.2
402.597	699.6
403.002	675.6
403.386	701.4
403.791	703
404.197	680.6
404.602	679.2
405.007	684.4
405.413	683.4
405.818	675.6
406.224	682
406.608	675.8
407.014	676.6
407.42	698.4
407.825	679.2
408.231	693.2
408.637	692.4
409.043	700.2
409.449	674.2
409.834	675
410.24	682.8
410.646	691.8
411.052	696.2
411.458	685.8
411.865	693.6
412.271	694.2
412.677	685
413.062	690.8
413.469	686.2
413.875	714.4
414.282	704.4
414.689	702
415.095	703.4
415.502	671.6
415.888	676.8
416.294	674.2
416.701	731.6
417.108	678
417.515	682.4
417.923	689.4
418.33	711.6
418.715	695.4
419.123	684.8
419.53	686.2
419.937	691.2
420.345	698.8
420.752	683.6
421.16	701.6
421.546	683
421.953	698
422.361	672.6
422.769	690.8
423.177	675
423.585	709
423.992	700.4
424.379	701.2
424.787	694.6
425.195	702.4
425.603	689.4
426.011	698
426.419	703
426.806	679.8
427.214	690.6
427.623	695.8
428.031	710.8
428.44	684
428.848	699.4
429.235	714.4
429.644	696
430.053	686.8
430.461	705.2
430.87	724
431.279	694.6
431.666	680.8
432.075	691.4
432.484	694.4
432.893	684.4
433.302	717.4
433.711	734.4
434.099	704.6
434.508	690
434.918	681
435.327	692
435.737	691
436.125	689.6
436.534	687.2
436.944	692.8
437.353	692.2
437.763	711.6
438.173	682
438.561	698
438.971	663.6
439.381	673.4
439.791	686.2
440.201	660.8
440.589	680.6
440.999	690.6
441.409	684.8
441.819	660.4
442.23	689.8
442.619	692
443.029	677.6
443.439	682.4
443.85	694
444.26	704
444.649	692
445.06	685.2
445.471	673.2
445.881	689
446.292	702.8
446.682	704
447.092	675.4
447.503	741.8
447.914	687
448.325	683.4
448.715	683.6
449.126	675.4
449.537	685.4
449.948	682.4
450.338	685
450.75	696.8
451.161	681.8
451.572	691.8
451.984	685.4
452.374	668.2
452.786	675.6
453.197	685.6
453.609	695.8
453.999	673.8
454.411	674.2
454.823	693.6
455.235	686.2
455.647	681.2
456.037	691.4
456.449	671.6
456.862	677.8
457.274	682.4
457.665	672.2
458.077	693.4
458.489	718.2
458.902	679.4
459.293	680
459.705	681
460.118	674.2
460.53	685.8
460.921	675
461.334	677.8
461.747	693.2
462.16	700
462.551	695.6
462.964	678.6
463.377	665.4
463.79	680
464.182	683.4
464.595	666.6
465.008	674.6
465.421	683
465.813	683.6
466.226	688.6
466.64	679.8
467.053	725.4
467.445	690.6
467.859	692.8
468.272	679
468.686	690
469.078	684.4
469.492	664.2
469.906	669.6
470.298	685.2
470.712	664.4
471.126	748.4
471.54	663.8
471.933	669.8
472.347	678
472.761	675.4
473.175	667.4
473.568	672.2
473.982	670
474.397	672.2
474.79	679.4
475.204	685
475.619	677.2
476.033	676.6
476.426	679.2
476.841	663.4
477.256	703.6
477.649	665.6
478.064	669.4
478.479	669
478.872	673.4
479.287	660
479.702	670.8
480.118	669.8
480.511	672.6
480.927	676.6
481.342	672.4
481.736	676.8
482.151	669
482.566	688
482.96	677.8
483.376	684
483.792	670.8
484.186	678.2
484.602	672
485.017	669.8
485.412	677.4
485.827	681.4
486.243	676.8
486.638	703
487.054	680.6
487.47	694.2
487.865	679
488.281	671.6
488.697	662.6
489.092	670.6
489.508	670.2
489.925	691.2
490.32	662.4
490.736	683.6
491.153	672.8
491.548	676.4
491.964	686.6
492.381	654.4
492.776	675
493.193	680.6
493.61	683
494.006	678.6
494.422	678
494.84	660.6
495.235	681.4
495.652	679
496.069	668.8
496.465	660
496.883	669.8
497.3	696.4
497.696	666.2
498.113	679.8
498.509	662
498.927	659.6
499.344	664.6
499.741	665.2
500.158	686
500.576	684.4
500.973	684.6
501.39	670.6
501.787	664
502.205	687.8
502.623	674
503.02	667.4
503.438	668.4
503.856	666.4
504.253	680.8
504.671	678.6
505.068	662.4
505.486	676.6
505.905	696
506.302	672
506.72	696.8
507.118	664.4
507.536	680
507.955	673.4
508.352	674.2
508.771	679.8
509.169	679.8
509.587	672.6
510.006	680.4
510.404	664.8
510.823	662.4
511.221	667.6
511.64	673.4
512.038	686.4
512.457	669.2
512.877	671.8
513.275	672.6
513.694	673.2
514.092	667.2
514.512	668.6
514.91	668.4
515.33	684.4
515.749	677.6
516.148	677.6
516.568	678.4
516.966	674.4
517.386	666
517.785	669.8
518.205	667.2
518.603	659.6
519.024	671.4
519.444	673.4
519.843	680
520.263	689
520.662	676.8
521.082	670.6
521.481	666.4
521.902	674.4
522.301	671.4
522.722	682.2
523.121	663.4
523.542	668
523.963	675.4
524.362	673.8
524.783	670.6
525.183	663.2
525.604	684.8
526.003	665.6
526.425	662.6
526.824	676.6
527.246	691
527.646	674.4
528.067	678.8
528.467	671.4
528.888	674.6
529.289	673.8
529.71	666.4
530.11	671.8
530.532	675.8
530.932	660.8
531.354	664
531.755	700.2
532.176	685.8
532.577	668
532.999	676
533.4	666
533.822	683.6
534.223	676.2
534.645	674.2
535.046	666
535.468	666
535.869	684.4
536.292	666.4
536.693	716.4
537.115	668.8
537.516	667
537.939	668
538.34	688.8
538.742	683
539.165	671
539.566	679.8
539.989	670.2
540.391	669
540.814	670.2
541.216	674.2
541.639	676.8
542.041	680.8
542.464	658.2
542.866	660.2
543.268	650
543.691	671.2
544.093	675.8
544.517	693
544.919	659.8
545.343	696.8
545.745	657.2
546.147	664.4
546.571	671.2
546.974	659
547.398	675
547.8	685.6
548.224	671.4
548.627	652.8
549.03	678
549.454	664.6
549.857	655.6
550.281	659.4
550.684	660
551.087	680
551.512	678
551.915	678.6
552.34	672.4
552.743	673.6
553.146	671
553.571	669.8
553.975	687.2
554.399	663
554.803	717.4
555.207	672.2
555.632	667.2
556.036	667.8
556.461	666.4
556.865	672.4
557.268	661.4
557.694	665.6
558.098	679.4
558.502	672.4
558.927	663.4
559.332	668.2
559.736	662.6
560.162	677.2
560.566	668
560.992	677.6
561.396	672.8
561.801	665.6
562.227	665
562.631	668.6
563.036	669.4
563.462	676.8
563.867	669.2
564.272	657.8
564.698	671.2
565.103	668.6
565.508	686
565.935	670.2
566.34	667.2
566.745	688.6
567.172	668.4
567.577	690.8
567.982	686.4
568.409	670.6
568.815	657.6
569.22	671
569.626	680
570.053	651.2
570.459	678
570.865	678.4
571.292	669.2
571.698	670.2
572.104	649.2
572.531	658.2
572.937	669
573.343	659.2
573.75	658.6
574.177	660.8
574.583	673.2
574.99	658.4
575.396	673.2
575.824	665.2
576.231	670.4
576.637	658
577.065	701.4
577.472	662
577.879	655.6
578.286	679.2
578.714	652.6
579.121	663.2
579.528	669
579.935	678.2
580.364	666.8
580.771	651.2
581.178	654.8
581.585	672.8
582.014	675.4
582.421	661.6
582.829	658.6
583.236	678.4
583.644	654
584.073	658.6
584.481	671.6
584.889	656.6
585.296	668.6
585.726	675.6
586.134	661
586.542	661
586.95	689
587.358	657.2
587.787	667.4
588.196	651.2
588.604	662
589.012	667.6
589.421	661.8
589.851	665.8
590.259	672.4
590.668	658.4
591.076	714.2
591.485	663.2
591.894	665
592.324	683.4
592.733	681.4
593.142	657.6
593.551	660.6
593.96	713
594.369	654.8
594.8	653.4
595.209	657
595.618	649.6
596.028	653.6
596.437	663.6
596.847	667.4
597.256	675
597.687	667
598.097	662.2
598.507	648.8
598.917	668.6
599.327	678.6
599.736	675.6
600.146	676.8
600.556	667.4
600.988	686.6
601.398	664.4
601.808	688.8
602.219	655.4
602.629	661.2
603.039	662.8
603.45	703.2
603.86	664.6
604.271	681
604.703	664
605.114	666.8
605.525	663.4
605.935	680.2
606.346	690
606.757	674
607.168	666.4
607.579	664
607.99	680.8
608.402	661.8
608.813	668.2
609.224	668.6
609.636	662.6
610.047	664.6
610.48	668
610.892	674.8
611.303	678.6
611.715	657.8
612.127	654.8
612.539	657.4
612.95	657.6
613.362	656.8
613.774	649.2
614.186	662.8
614.599	657.4
615.011	678.2
615.423	660.6
615.835	654
616.248	660.8
616.66	670.8
617.073	662.2
617.485	659.2
617.898	671.2
618.311	668.2
618.723	662
619.136	693.4
619.549	677.8
619.962	687.4
620.375	656
620.788	668.6
621.201	664.4
621.614	679
622.028	667.2
622.441	670.2
622.854	680.4
623.268	657.6
623.681	671.6
624.095	665.2
624.509	675.6
624.922	670.2
625.336	653.8
625.728	658.8
626.142	678.8
626.556	682.8
626.97	678.4
627.384	658.8
627.799	666.4
628.213	669.6
628.627	663.2
629.041	660.6
629.456	656.6
629.87	667
630.285	672.8
630.699	672.4
631.093	658.4
631.507	663.2
631.922	665.8
632.337	668
632.752	644.2
633.167	650.2
633.582	664.8
633.997	663.4
634.412	654.6
634.806	663.8
635.221	651.2
635.637	664.6
636.052	650
636.468	669.4
636.883	686
637.299	654.6
637.715	652.4
638.109	657.8
638.525	646.6
638.941	682.2
639.357	668
639.773	679
640.189	658.8
640.584	664
641	664
641.416	650
641.832	672.2
642.249	657.4
642.665	657.6
643.06	669
643.477	677.8
643.894	651.8
644.31	668.6
644.727	663.4
645.123	659.8
645.54	659.6
645.957	661.8
646.374	676.6
646.77	661
647.187	699.2
647.604	668.2
648.021	643.4
648.439	652.6
648.835	668.2
649.252	666.6
649.67	663
650.088	666.4
650.484	665.2
650.902	667.8
651.32	672.4
651.738	659.4
652.134	664.2
652.552	682.6
652.971	666.6
653.389	663
653.786	685.8
654.204	682.2
654.622	664.8
655.019	658.4
655.438	676.2
655.857	663.2
656.275	670.4
656.673	655.4
657.091	746.8
657.51	651.8
657.908	674.4
658.327	687
658.746	647.8
659.144	662
659.563	675
659.982	678.8
660.38	655
660.8	667.6
661.219	671.8
661.617	682.8
662.037	662.6
662.457	677.6
662.855	654.2
663.275	703
663.695	670.6
664.094	662.6
664.514	666
664.934	661.8
665.333	671
665.753	660.8
666.152	654
666.572	661.4
666.993	682.6
667.392	659.2
667.812	659.4
668.212	662.6
668.632	681.8
669.053	662.6
669.453	672.2
669.874	671.4
670.273	668.2
670.694	648.6
671.116	669.2
671.515	670.2
671.937	664.2
672.337	665.8
672.758	659.4
673.158	672
673.58	653.2
673.98	668
674.402	675.6
674.824	664
675.224	655.8
675.646	649.8
676.047	647.6
676.469	659.8
676.869	677
677.292	657.6
677.693	650.2
678.115	653.2
678.516	661.8
678.939	669
679.34	653.4
679.762	671.2
680.164	662.6
680.586	652.4
680.988	667.6
681.411	680.6
681.812	667.2
682.236	654
682.637	653
683.061	641.2
683.462	665.8
683.864	655
684.288	669.8
684.69	651.2
685.114	675.8
685.516	668.2
685.94	654.4
686.342	665.8
686.766	650.8
687.168	653.4
687.571	679.4
687.995	662
688.398	648.2
688.822	657
689.225	686.4
689.628	670.2
690.052	660
690.456	662.6
690.88	665.2
691.284	654.2
691.687	663.2
692.112	640.6
692.515	647.8
692.919	655.8
693.344	661.6
693.747	652.4
694.173	656.2
694.577	670.6
694.98	657.2
695.406	658.2
695.81	668.4
696.214	672
696.64	668.4
697.044	669.8
697.448	674
697.874	656.6
698.279	662.8
698.684	648.4
699.11	657.2
699.514	666.8
699.919	655.4
700.324	655.8
700.75	664.8
701.156	660.2
701.561	676.8
701.987	666.4
702.393	675
702.798	677.6
703.203	663
703.63	658
704.036	658
704.442	663
704.847	655.2
705.274	665.2
705.68	670.2
706.086	665.8
706.492	653.8
706.92	661.2
707.326	679
707.732	660.4
708.139	660.8
708.545	656.2
708.973	653.4
709.38	661.6
709.786	651
710.193	685.2
710.6	666.8
711.028	650.4
711.435	665.2
711.842	651.8
712.249	656.6
712.656	664
713.064	671.4
713.492	649
713.9	661.4
714.307	669.8
714.715	663
715.123	662.4
715.53	674.8
715.938	675.4
716.367	663.2
716.775	657
717.184	662.2
717.592	653.8
718	683.2
718.408	691.6
718.816	719.4
719.225	663.2
719.633	659
720.042	656.6
720.472	662.4
720.881	691.4
721.29	660.2
721.699	646.4
722.108	668.8
722.517	654
722.926	647.6
723.335	681.8
723.744	656
724.154	664.2
724.563	665.8
724.973	664.6
725.382	656.6
725.792	666.8
726.202	663.2
726.612	688.2
727.022	661
727.432	656.8
779.813	659.4
780.223	708.6
780.634	663.4
781.044	659.2
781.454	667.8
781.865	673.6
782.276	645.4
782.686	675
783.097	660.6
783.508	655.2
783.919	664.2
784.33	674
784.741	675
785.152	654.2
785.563	638.2
785.974	655.2
786.386	669.8
786.776	656
787.188	659.2
787.599	649.4
788.011	665.6
788.423	662.4
788.835	661.4
789.247	650.4
789.659	662.2
790.071	659.2
790.483	711.8
790.874	651.6
791.286	669
791.699	650.2
792.111	654.4
792.524	666.6
792.937	662.2
793.349	649.8
793.741	649.8
794.154	652.8
794.567	684
794.98	660.8
795.393	652.4
795.785	679.6
796.198	659
796.612	655.2
797.026	650.8
797.439	643.6
797.831	649.8
798.245	652.8
798.659	657
799.073	653.6
799.487	651
799.88	662.4
800.294	650.6
800.708	662
801.123	662
801.516	678
801.93	651.4
802.345	642.8
802.76	658.4
803.153	669.6
803.568	665.8
803.983	668.8
804.377	664.8
804.792	633.8
805.207	640.2
805.601	655.2
806.016	686.6
806.432	647
806.826	687
807.242	677
807.658	667
808.052	651.6
808.468	652.2
808.884	642.2
809.279	652.4
809.695	682
810.111	687.2
810.506	663.8
810.922	686.4
811.339	662.8
811.734	668.2
812.151	655.8
812.546	649.8
812.963	655.6
813.38	664.2
813.776	652.4
814.193	680
814.589	649.4
815.006	661
815.402	651
815.82	651.8
816.237	656.6
816.633	664.6
817.051	645.4
817.448	659.6
817.866	642
818.262	685.8
818.68	651
819.077	658.2
819.495	657
819.892	700.2
820.311	651
820.708	652.2
821.127	648.6
821.524	671.2
821.943	666.2
822.34	686.8
822.759	668.4
823.157	650.8
823.576	672
823.974	670.4
824.393	737.6
824.791	657.2
825.189	650.2
825.609	649.6
826.007	658.2
826.427	645
826.826	654.6
827.246	664
827.644	643
828.043	670.2
828.463	649.6
828.862	670.4
829.261	658.2
829.682	643
830.081	658.4
830.502	658.2
830.901	662.4
831.301	646.8
831.722	642.2
832.121	654.8
832.521	656
832.943	656.2
833.342	660.4
833.742	646.8
834.164	653.4
834.564	637.2
834.965	656.6
835.386	656
835.787	655
836.188	645.6
836.588	662
837.01	659.4
837.411	655.8
837.812	661
838.213	659.8
838.636	648.4
839.037	740.4
839.438	655.8
839.84	661
840.263	663.4
840.664	656.8
841.066	656.2
841.468	662.2
841.891	647.8
842.293	667.6
842.695	667.2
843.098	669
843.5	656.8
843.902	662.8
844.326	666
844.729	667.4
845.131	667.4
845.534	659.8
845.937	668.2
846.34	682
846.764	651.2
847.167	660
847.571	656.8
847.974	664
848.377	652
848.781	712.2
849.184	667.4
849.588	663.8
849.992	654.6
850.396	662.2
850.821	679.6
851.225	659.6
851.63	660.4
852.034	667.8
852.438	658.6
852.843	706.2
853.247	652.6
853.652	650.2
854.057	678.6
854.462	662.2
854.867	657.8
855.272	688
855.677	661.6
856.082	650
856.487	647.4
856.893	656.4
857.298	652.2
857.704	658.2
858.11	662.2
858.516	654.8
