#lambda/nm	C1
208.295	536.2
208.67	486.2
209.045	445.2
209.419	454
209.794	687.6
210.169	671.2
210.544	817.2
210.919	695.6
211.295	674.8
211.67	690.4
212.045	687.8
212.421	687.6
212.796	729.2
213.172	676.6
213.547	677
213.923	681.6
214.299	679
214.675	689.2
215.051	682.2
215.427	692
215.803	711.4
216.179	694.8
216.555	681.4
216.932	696.2
217.308	681.8
217.684	682.6
218.061	700
218.438	687
218.814	677.8
219.191	693.6
219.568	682
219.945	684.4
220.322	696.2
220.699	694.6
221.076	698
221.453	700.4
221.83	680
222.208	689.6
222.585	686
222.962	689.8
223.34	697.4
223.717	689
224.095	693.8
224.473	691.4
224.851	681.4
225.229	681.4
225.607	707.4
225.985	674.8
226.363	683.4
226.741	685
227.119	690.8
227.497	709.8
227.876	674
228.254	695.2
228.633	684.8
229.011	696.2
229.39	691.8
229.769	679.4
230.148	700.2
230.527	713.6
230.905	695
231.284	690
231.664	675.8
232.043	694
232.422	692
232.801	677.2
233.181	704.6
233.56	683.8
233.94	693.6
234.319	671.2
234.699	682.4
235.079	732.6
235.458	742
235.838	706.6
236.218	680.8
236.598	674.6
236.978	690.6
237.358	677.6
237.738	685.6
238.119	699.4
238.499	677
238.88	688
239.26	709
239.641	670.6
240.021	681.4
240.402	680.2
240.783	676.8
241.163	688.6
241.544	694
241.925	686
242.306	703.8
242.687	669.8
243.069	697.4
243.45	697.6
243.831	682.2
244.212	686
244.594	729.2
244.975	693.2
245.357	683.4
245.739	679
246.12	689.6
246.502	716.2
246.884	686.8
247.266	687.6
247.648	695.4
248.03	714.2
248.412	692
248.794	693.8
249.176	690.8
249.559	700.2
249.941	685.6
250.323	684.6
250.706	684.4
251.089	691.4
251.471	693.6
251.854	692
252.237	684.2
252.62	708.6
253.002	694
253.385	687.4
253.769	706.2
254.152	687.2
254.535	695.8
254.918	684.4
255.301	691.8
255.685	692.4
256.068	680.2
256.452	721.4
256.835	700
257.219	695.4
257.603	710
257.986	681.4
258.37	703.2
258.754	682.4
259.138	700.8
259.522	712.2
259.906	686.2
260.29	701.4
260.675	699.8
261.059	695.2
261.443	671.8
261.828	700.2
262.212	693.2
262.597	673.6
262.981	693.6
263.366	703.4
263.751	691.8
264.136	681.8
264.521	684.8
264.906	683.6
265.291	696.4
265.676	683.8
266.061	701.4
266.446	710
266.831	697.6
267.217	717.8
267.602	695.2
267.987	684.8
268.373	683.4
268.759	706
269.144	701.6
269.53	692.2
269.916	687.2
270.302	681.6
270.688	702
271.074	698.8
271.46	700.8
271.846	733.8
272.232	693
272.618	691
273.004	686.8
273.391	697.6
273.777	713
274.164	687.6
274.55	706.8
274.937	693.4
275.324	682.4
275.71	699.6
276.097	699.8
276.484	678.2
276.871	696.6
277.258	697.6
277.645	688.4
278.032	694.6
278.419	701.2
278.807	701.8
279.194	675
279.581	686.4
279.969	691.4
280.356	690.6
280.744	686.8
281.131	719.8
281.519	705.4
281.907	689.6
282.295	688
282.682	709.2
283.07	693.6
283.458	707.6
283.846	709.8
284.235	710.8
284.623	697.8
285.011	685
285.399	690.2
285.788	696.8
286.176	680.6
286.565	711.4
286.953	682
287.342	683.2
287.731	688.6
288.119	690
288.508	687.4
288.897	697.2
289.286	675.8
289.675	684.6
290.064	712.6
290.453	694
290.821	689.4
291.21	712.6
291.599	689.8
291.989	699.8
292.378	705.8
292.768	718
293.157	702
293.547	705
293.936	692.6
294.326	688
294.716	699
295.106	692.4
295.496	708.6
295.886	703.8
296.276	699.6
296.666	684.4
297.056	686.6
297.446	682
297.836	709.2
298.227	687.2
298.617	695
299.008	714.8
299.398	696.8
299.789	687.4
300.179	692
300.57	706.4
300.961	681
301.352	692.8
301.742	710.4
302.133	701.8
302.524	690.2
302.915	694.8
303.307	689.8
303.698	709.2
304.089	702.2
304.48	691.8
304.872	699
305.263	689.6
305.655	683.4
306.046	695.8
306.438	703
306.829	683.6
307.221	707.6
307.613	701.4
308.005	699.2
308.397	709.2
308.789	715.4
309.181	721.4
309.573	711
309.965	715
310.357	700.6
310.749	707.8
311.142	678
311.534	680.2
311.926	689.2
312.319	688.8
312.711	688.4
313.104	712.8
313.497	688.2
313.889	737.6
314.282	716.2
314.675	731
315.068	700
315.461	710.8
315.854	723.2
316.247	701.2
316.64	696.8
317.033	699.2
317.405	707.2
317.798	704.2
318.192	701.2
318.585	683
318.979	702.8
319.372	691
319.766	698.2
320.16	707.4
320.553	715.6
320.947	720.4
321.341	692.8
321.735	694.6
322.129	681.2
322.523	724.4
322.917	680.8
323.311	707.8
323.705	697.2
324.099	699.4
324.494	713.4
324.888	700.4
325.282	694.6
325.677	702.6
326.071	705.2
326.466	702.4
326.861	710
327.255	711
327.65	713
328.045	718.2
328.44	699
328.835	700.6
329.23	696.8
329.625	729.4
330.02	688.8
330.415	728.6
330.81	694.2
331.206	702
331.601	690
331.996	707.8
332.37	723
332.766	690.4
333.161	722.4
333.557	690.4
333.953	697
334.348	1036.8
334.744	689.6
335.14	690
335.536	690.2
335.932	706.8
336.328	699.8
336.724	706.6
337.12	687.2
337.516	700.4
337.913	695.2
338.309	700.8
338.705	695
339.102	716.2
339.498	697.2
339.895	705.2
340.291	680
340.688	702.6
341.085	675.2
341.481	686.8
341.878	686.2
342.275	710.4
342.672	682.8
343.069	689.8
343.466	669
343.842	705.6
344.239	672.8
344.636	691.6
345.033	675.2
345.431	682.6
345.828	688.4
346.225	685.4
346.623	731.6
347.02	689.6
347.418	700.4
347.816	712.6
348.213	673.4
348.611	694.6
349.009	677.8
349.407	705.8
349.805	676.8
350.203	677.8
350.601	704.6
350.999	692.8
351.397	761.8
351.795	696.6
352.193	700.6
352.57	697.2
352.969	706.4
353.367	679.4
353.766	684
354.164	694
354.563	716.4
354.961	693.6
355.36	684.2
355.759	691
356.158	685.8
356.557	685.4
356.956	679.2
357.355	679.6
357.754	701.8
358.153	698.4
358.552	714.6
358.951	695.2
359.35	701.6
359.75	689.4
360.149	681
360.527	669.6
360.926	679.8
361.326	693
361.726	686.4
362.125	677.4
362.525	701.4
362.925	685.6
363.325	694
363.724	686.8
364.124	688.8
364.524	684.4
364.924	698.2
365.324	693.8
365.725	674.4
366.125	700
366.525	700.4
366.904	683.2
367.304	674
367.705	711.6
368.105	701.4
368.506	688.8
368.906	683.8
369.307	689.8
369.708	706.2
370.108	680
370.509	691.6
370.91	676.2
371.311	692.6
371.712	694.2
372.113	682.2
372.514	678.4
372.894	682.2
373.295	684
373.696	698.8
374.097	687.8
374.499	719.2
374.9	695
375.301	679.2
375.703	697.6
376.105	686.6
376.506	693.8
376.908	685.6
377.309	681.4
377.711	697.2
378.113	678.6
378.493	686.8
378.895	676
379.297	689
379.699	664
380.102	680
380.504	680.4
380.906	682
381.308	725.6
381.71	686.6
382.113	693.2
382.515	679.6
382.918	689.8
383.299	687.8
383.701	701.4
384.104	686.4
384.507	670.2
384.909	678.2
385.312	672
385.715	678.2
386.118	682
386.521	666.6
386.924	698.8
387.327	685.8
387.709	674.6
388.112	672.4
388.515	681
388.918	690.2
389.322	689.6
389.725	681.4
390.129	709.2
390.532	693.2
390.936	685.2
391.339	683.4
391.743	693.8
392.125	684.2
392.529	699.4
392.933	701
393.337	682.4
393.74	685.6
394.144	685.8
394.548	674
394.953	689.2
395.357	691.2
395.761	690
396.144	686.8
396.548	682.8
396.952	680.4
397.357	685.4
397.761	682.6
398.166	681.2
398.57	688
398.975	672.2
399.379	694.4
399.763	741.8
400.168	690
400.572	686.6
400.977	688
401.382	708.8
401.787	693.6
402.192	704.6
402.597	701
403.002	675.2
403.386	706.6
403.791	706
404.197	678.4
404.602	681
405.007	683.8
405.413	680.6
405.818	692.6
406.224	678.8
406.608	687.6
407.014	679.4
407.42	709
407.825	689.6
408.231	701.4
408.637	684.6
409.043	711.4
409.449	679
409.834	669.8
410.24	685
410.646	690.2
411.052	693.2
411.458	697
411.865	703.2
412.271	694
412.677	686.6
413.062	693.2
413.469	683
413.875	708.4
414.282	701.8
414.689	694
415.095	696.4
415.502	680.6
415.888	687.4
416.294	674.4
416.701	738.2
417.108	682.8
417.515	698.4
417.923	688
418.33	713.4
418.715	693.8
419.123	684.4
419.53	688.4
419.937	687.4
420.345	713
420.752	683.2
421.16	709.4
421.546	687.6
421.953	701
422.361	679.6
422.769	685
423.177	679
423.585	715
423.992	711
424.379	700
424.787	697.6
425.195	703
425.603	684.4
426.011	703.8
426.419	703.6
426.806	690.6
427.214	686.8
427.623	706
428.031	700.8
428.44	689.2
428.848	707.2
429.235	712.4
429.644	695.6
430.053	693.4
430.461	716.2
430.87	725.4
431.279	705.2
431.666	674.2
432.075	691.4
432.484	695.2
432.893	691.8
433.302	722.6
433.711	746
434.099	695.4
434.508	682
434.918	680.6
435.327	694.8
435.737	696.8
436.125	693.2
436.534	704.6
436.944	689.2
437.353	694.8
437.763	714
438.173	677.2
438.561	703.8
438.971	670.8
439.381	688.8
439.791	685.4
440.201	664.2
440.589	683
440.999	691.4
441.409	684.8
441.819	670
442.23	688.4
442.619	686.8
443.029	681.8
443.439	687.4
443.85	694.8
444.26	696.4
444.649	687.2
445.06	679
445.471	673.2
445.881	689.6
446.292	706.8
446.682	718
447.092	674.6
447.503	741.8
447.914	685.2
448.325	683.2
448.715	682.8
449.126	682.6
449.537	677.2
449.948	688.4
450.338	683
450.75	692.4
451.161	685.4
451.572	697.4
451.984	688
452.374	666.6
452.786	688.2
453.197	689.4
453.609	688
453.999	669.6
454.411	677.2
454.823	694
455.235	684
455.647	681.6
456.037	686.6
456.449	673
456.862	693.6
457.274	694.2
457.665	673.8
458.077	692.6
458.489	718.6
458.902	679.2
459.293	683
459.705	683.2
460.118	675
460.53	684.4
460.921	683.2
461.334	696.6
461.747	685
462.16	692.6
462.551	695.6
462.964	687.8
463.377	672
463.79	683.8
464.182	691.4
464.595	677.4
465.008	690
465.421	695.4
465.813	680.4
466.226	686.8
466.64	678.4
467.053	732.2
467.445	692
467.859	701.8
468.272	697
468.686	698.4
469.078	685
469.492	664.4
469.906	688.4
470.298	689.6
470.712	671.8
471.126	748
471.54	664.8
471.933	674
472.347	682.6
472.761	684
473.175	665.4
473.568	676.8
473.982	666.8
474.397	682
474.79	679.2
475.204	687
475.619	666.6
476.033	696.6
476.426	683.8
476.841	668.4
477.256	705
477.649	671.4
478.064	662.2
478.479	675.2
478.872	673.2
479.287	660.4
479.702	665.6
480.118	680
480.511	677.6
480.927	677.2
481.342	667.6
481.736	673.2
482.151	668.4
482.566	690.4
482.96	682.8
483.376	686.6
483.792	670.4
484.186	679
484.602	671.4
485.017	679.2
485.412	669
485.827	684.6
486.243	679.2
486.638	706
487.054	690.8
487.47	696.8
487.865	676.2
488.281	676
488.697	669
489.092	684
489.508	675
489.925	688.4
490.32	665.4
490.736	681.8
491.153	681.2
491.548	684.4
491.964	687.2
492.381	653.8
492.776	682.2
493.193	682.2
493.61	696.2
494.006	686.2
494.422	686
494.84	663.8
495.235	694.8
495.652	676.2
496.069	678.6
496.465	670.8
496.883	676
497.3	707.2
497.696	673.4
498.113	685.4
498.509	661.4
498.927	663.8
499.344	677.2
499.741	674
500.158	691.6
500.576	691.4
500.973	679.8
501.39	669.2
501.787	665
502.205	677.6
502.623	674.2
503.02	667
503.438	666.6
503.856	676.4
504.253	677.6
504.671	678.2
505.068	674.2
505.486	672.6
505.905	701.4
506.302	691
506.72	685
507.118	670.2
507.536	679.4
507.955	675.6
508.352	677.4
508.771	685.6
509.169	687.2
509.587	667.2
510.006	682.2
510.404	672
510.823	671.8
511.221	672.4
511.64	675.2
512.038	688.8
512.457	671.2
512.877	683.4
513.275	667.8
513.694	667.8
514.092	661.4
514.512	670.2
514.91	672.6
515.33	673.2
515.749	674.8
516.148	684.6
516.568	678.6
516.966	680.8
517.386	669.4
517.785	676.8
518.205	671.2
518.603	667.4
519.024	662
519.444	683.2
519.843	683.2
520.263	682.6
520.662	678.8
521.082	668.6
521.481	675.8
521.902	671.4
522.301	675.4
522.722	679.8
523.121	676.2
523.542	674.8
523.963	676.4
524.362	674.6
524.783	674.4
525.183	675.6
525.604	684.8
526.003	667.4
526.425	673.8
526.824	680.2
527.246	687.6
527.646	685.4
528.067	668.2
528.467	672.8
528.888	674.6
529.289	670.6
529.71	673
530.11	670.2
530.532	664.6
530.932	669
531.354	659.6
531.755	707.8
532.176	682.8
532.577	670.8
532.999	679.4
533.4	669
533.822	687
534.223	684.6
534.645	670
535.046	666.6
535.468	669.4
535.869	690.2
536.292	668
536.693	709.6
537.115	679.6
537.516	660.6
537.939	666
538.34	691
538.742	686.4
539.165	674.8
539.566	670.4
539.989	673
540.391	672.8
540.814	679
541.216	669.2
541.639	672
542.041	683
542.464	658
542.866	664.4
543.268	657.6
543.691	674.2
544.093	678.2
544.517	691.6
544.919	667.8
545.343	695.8
545.745	664
546.147	664.4
546.571	666.6
546.974	664
547.398	667.6
547.8	687
548.224	673
548.627	668
549.03	682
549.454	660.2
549.857	660.4
550.281	660.4
550.684	666.6
551.087	683.2
551.512	672.8
551.915	677.8
552.34	665.6
552.743	668.2
553.146	669.4
553.571	668
553.975	686.6
554.399	662.4
554.803	725.8
555.207	665.4
555.632	668
556.036	679
556.461	668.6
556.865	671
557.268	657.2
557.694	672
558.098	671
558.502	677.8
558.927	658.2
559.332	674.4
559.736	667.6
560.162	686.6
560.566	669.4
560.992	681.2
561.396	661
561.801	679.2
562.227	678
562.631	672.4
563.036	667
563.462	673.2
563.867	680.2
564.272	653.4
564.698	677.6
565.103	664.8
565.508	698.6
565.935	672.8
566.34	666.8
566.745	683
567.172	664
567.577	694.8
567.982	687
568.409	682.6
568.815	671
569.22	674
569.626	677.6
570.053	652.8
570.459	672.4
570.865	679.8
571.292	680.2
571.698	678.8
572.104	654.2
572.531	668.8
572.937	680.8
573.343	670.6
573.75	661.2
574.177	672.4
574.583	677.6
574.99	670.2
575.396	675.8
575.824	666.8
576.231	672.4
576.637	664.8
577.065	700.6
577.472	666.6
577.879	674.8
578.286	684.6
578.714	659.8
579.121	665.8
579.528	665.2
579.935	675.8
580.364	668.2
580.771	646.6
581.178	659.4
581.585	673.8
582.014	677.8
582.421	673.6
582.829	672.2
583.236	683
583.644	663.6
584.073	664.6
584.481	665.4
584.889	661.6
585.296	678.2
585.726	669.4
586.134	659.4
586.542	661.8
586.95	680.2
587.358	646.8
587.787	673
588.196	656.4
588.604	667.6
589.012	657.4
589.421	658.8
589.851	654.6
590.259	672.8
590.668	668
591.076	706.6
591.485	664.4
591.894	666.8
592.324	678.8
592.733	686.6
593.142	652.2
593.551	655.4
593.96	710.8
594.369	654
594.8	655.6
595.209	668
595.618	652.8
596.028	669.2
596.437	658.2
596.847	668.6
597.256	670.6
597.687	668.8
598.097	667.6
598.507	657
598.917	674
599.327	685.2
599.736	673.6
600.146	674.2
600.556	662
600.988	678.6
601.398	658.8
601.808	688.4
602.219	653.4
602.629	668
603.039	670.6
603.45	697.2
603.86	667.2
604.271	692.6
604.703	676
605.114	673.4
605.525	676.6
605.935	678.8
606.346	701.8
606.757	674
607.168	671.6
607.579	670.4
607.99	684.8
608.402	668.2
608.813	684.6
609.224	668.2
609.636	653.6
610.047	657.6
610.48	666.6
610.892	679.8
611.303	687.2
611.715	662.2
612.127	655.2
612.539	662.2
612.95	664.8
613.362	662.4
613.774	664.2
614.186	661.2
614.599	668.6
615.011	680
615.423	667.8
615.835	658.6
616.248	665.6
616.66	667.4
617.073	656.8
617.485	665
617.898	672.8
618.311	670.6
618.723	663.4
619.136	709.4
619.549	682.6
619.962	689.8
620.375	661.2
620.788	667.4
621.201	663.6
621.614	672.4
622.028	664.6
622.441	678.6
622.854	685
623.268	661.2
623.681	662.8
624.095	675.4
624.509	682
624.922	678.2
625.336	657.6
625.728	673.6
626.142	678.2
626.556	682.4
626.97	677.2
627.384	668.2
627.799	661.2
628.213	685.2
628.627	662.4
629.041	666.8
629.456	656.2
629.87	663.8
630.285	674.6
630.699	677
631.093	661.8
631.507	672.8
631.922	662
632.337	678
632.752	657
633.167	665.2
633.582	657.4
633.997	657.4
634.412	661.4
634.806	674.2
635.221	667.4
635.637	672.2
636.052	656.4
636.468	667.6
636.883	687
637.299	656.8
637.715	657.6
638.109	672
638.525	652
638.941	679.2
639.357	666.6
639.773	677
640.189	656.8
640.584	664.2
641	672.4
641.416	652.4
641.832	666.2
642.249	668.2
642.665	678.8
643.06	666
643.477	677
643.894	651.8
644.31	672
644.727	676.2
645.123	658.4
645.54	657.8
645.957	673.4
646.374	683.6
646.77	667.6
647.187	691.2
647.604	668.8
648.021	642.4
648.439	658.4
648.835	662.4
649.252	659
649.67	654.4
650.088	653.4
650.484	666.8
650.902	671.4
651.32	673.2
651.738	663.2
652.134	658.4
652.552	682.2
652.971	670.8
653.389	656
653.786	685.2
654.204	688.2
654.622	655.4
655.019	671.4
655.438	668.4
655.857	661.6
656.275	667
656.673	659.4
657.091	751.8
657.51	651.6
657.908	675
658.327	677.8
658.746	648.2
659.144	669.2
659.563	686.4
659.982	669.2
660.38	648.6
660.8	661.6
661.219	685.2
661.617	667.8
662.037	669
662.457	677.2
662.855	647.8
663.275	710
663.695	673.8
664.094	669.6
664.514	668.8
664.934	654.6
665.333	670.4
665.753	660.4
666.152	652.6
666.572	663.4
666.993	689
667.392	665
667.812	663.4
668.212	657.4
668.632	680.2
669.053	656
669.453	670.4
669.874	668.6
670.273	677.8
670.694	664.4
671.116	676.4
671.515	675
671.937	663.6
672.337	665.6
672.758	664.4
673.158	676
673.58	658.6
673.98	670.6
674.402	677
674.824	668
675.224	667.4
675.646	652.2
676.047	655.6
676.469	666.2
676.869	676.6
677.292	662.8
677.693	659.4
678.115	660.4
678.516	672.6
678.939	668.2
679.34	661.6
679.762	677.8
680.164	670.2
680.586	662.8
680.988	667.8
681.411	698.6
681.812	663.2
682.236	659.4
682.637	654.4
683.061	651
683.462	663.2
683.864	660.6
684.288	671.4
684.69	651.6
685.114	676.6
685.516	671.8
685.94	658.6
686.342	674.6
686.766	660
687.168	660.8
687.571	677.2
687.995	665.4
688.398	653.6
688.822	656.4
689.225	679.8
689.628	684
690.052	661.6
690.456	667.6
690.88	664.4
691.284	652.4
691.687	667.2
692.112	667.6
692.515	657.6
692.919	661.4
693.344	669
693.747	664.4
694.173	657
694.577	682.2
694.98	660.2
695.406	666.2
695.81	666.4
696.214	672.2
696.64	671.4
697.044	672.4
697.448	674
697.874	664.2
698.279	666
698.684	649.8
699.11	649.6
699.514	654.6
699.919	663.2
700.324	659.2
700.75	670.2
701.156	659
701.561	675.6
701.987	669.8
702.393	674.2
702.798	684.8
703.203	662
703.63	656
704.036	663
704.442	662.6
704.847	658.8
705.274	663.8
705.68	663.2
706.086	686
706.492	649
706.92	667.6
707.326	679
707.732	669.4
708.139	665.2
708.545	663.8
708.973	666
709.38	663.4
709.786	655.4
710.193	687.8
710.6	671.8
711.028	666.8
711.435	663.8
711.842	666.2
712.249	664.4
712.656	663.8
713.064	674.6
713.492	656.4
713.9	655
714.307	672
714.715	663.8
715.123	668.6
715.53	668.2
715.938	669.4
716.367	664.6
716.775	656.2
717.184	659.6
717.592	667.8
718	684
718.408	709.8
718.816	708.6
719.225	666.2
719.633	665.6
720.042	660.4
720.472	659.2
720.881	687.6
721.29	674.8
721.699	642
722.108	670
722.517	669.4
722.926	652.8
723.335	671.6
723.744	658.4
724.154	667.8
724.563	665.6
724.973	676.2
725.382	669.8
725.792	665.2
726.202	653
726.612	688.8
727.022	660
727.432	654
779.813	664.2
780.223	700.4
780.634	661.2
781.044	653.8
781.454	666.2
781.865	673.6
782.276	649.2
782.686	669.2
783.097	671
783.508	655.8
783.919	662.2
784.33	674.6
784.741	672.2
785.152	654.6
785.563	638.6
785.974	655
786.386	667.8
786.776	653.8
787.188	658.6
787.599	638.6
788.011	662.4
788.423	665.8
788.835	667.6
789.247	651.6
789.659	656.4
790.071	663.2
790.483	711.6
790.874	652.6
791.286	670.2
791.699	656
792.111	664.6
792.524	662.6
792.937	659.2
793.349	653
793.741	657.6
794.154	656
794.567	676.2
794.98	655.8
795.393	649.6
795.785	678.2
796.198	656.4
796.612	665.2
797.026	659.4
797.439	650.8
797.831	659.4
798.245	645.8
798.659	659
799.073	662.2
799.487	657.8
799.88	667.2
800.294	661
800.708	666.6
801.123	652.6
801.516	683.6
801.93	639.4
802.345	643
802.76	649.6
803.153	677.4
803.568	680.6
803.983	673.8
804.377	664.2
804.792	650.2
805.207	638.8
805.601	656
806.016	701.4
806.432	649.6
806.826	693.2
807.242	689.2
807.658	669.6
808.052	652.6
808.468	655.4
808.884	652.2
809.279	657.8
809.695	678.4
810.111	682.2
810.506	671.4
810.922	675.8
811.339	659.8
811.734	667.6
812.151	650.2
812.546	657.2
812.963	656
813.38	656.4
813.776	652.4
814.193	683
814.589	643.8
815.006	657.8
815.402	653.2
815.82	646.2
816.237	653.2
816.633	659.2
817.051	643.8
817.448	657.8
817.866	650.2
818.262	677.2
818.68	652.8
819.077	654.4
819.495	661.4
819.892	706.4
820.311	653.2
820.708	656.6
821.127	655.2
821.524	665.4
821.943	668.8
822.34	682.6
822.759	664
823.157	655.8
823.576	673.4
823.974	665.2
824.393	794.6
824.791	658.2
825.189	650.2
825.609	663.8
826.007	669.6
826.427	643.6
826.826	664.8
827.246	665.4
827.644	647.4
828.043	675
828.463	655.2
828.862	679.2
829.261	667.6
829.682	647
830.081	667.4
830.502	647.2
830.901	670
831.301	656.4
831.722	644
832.121	657
832.521	648.8
832.943	661.4
833.342	656.6
833.742	653.6
834.164	660.6
834.564	648
834.965	661.4
835.386	653.8
835.787	650.2
836.188	659
836.588	659.2
837.01	662.2
837.411	648.2
837.812	671
838.213	664.4
838.636	653.8
839.037	739.2
839.438	664.2
839.84	663.8
840.263	665.8
840.664	660
841.066	656.8
841.468	668.2
841.891	648.6
842.293	670
842.695	659
843.098	668.6
843.5	642.6
843.902	652.8
844.326	664.4
844.729	658
845.131	670.6
845.534	661.6
845.937	670.2
846.34	678
846.764	653.2
847.167	661.6
847.571	643.4
847.974	654.4
848.377	657
848.781	714
849.184	674.4
849.588	661.2
849.992	651.6
850.396	666.8
850.821	691.8
851.225	666.4
851.63	649.2
852.034	679.4
852.438	670.8
852.843	801.6
853.247	647.4
853.652	653.8
854.057	680.8
854.462	670.6
854.867	660
855.272	687
855.677	666.8
856.082	653.2
