#lambda/nm	C1
208.295	537.6
208.67	490.8
209.045	450.8
209.419	449.8
209.794	687.6
210.169	665.2
210.544	799
210.919	695
211.295	671
211.67	694.8
212.045	689.6
212.421	673.4
212.796	724.4
213.172	679.8
213.547	688
213.923	685.8
214.299	677.2
214.675	685
215.051	681.4
215.427	691.2
215.803	701.6
216.179	693.4
216.555	683
216.932	687.2
217.308	680.8
217.684	683.8
218.061	683.6
218.438	687.4
218.814	676.2
219.191	691.4
219.568	666.6
219.945	679.8
220.322	684.8
220.699	697
221.076	682.8
221.453	690.2
221.83	681.8
222.208	687.4
222.585	675.2
222.962	693
223.34	686.2
223.717	683
224.095	676.6
224.473	691.6
224.851	673.2
225.229	669.8
225.607	700
225.985	675
226.363	675.8
226.741	683.4
227.119	682.2
227.497	703
227.876	666.4
228.254	686.4
228.633	696.6
229.011	688.8
229.39	693.8
229.769	680.6
230.148	694.8
230.527	700
230.905	679.8
231.284	683.2
231.664	676.2
232.043	704.4
232.422	698.6
232.801	681
233.181	685.6
233.56	688.2
233.94	685.4
234.319	667.4
234.699	684
235.079	734.6
235.458	725.8
235.838	703.2
236.218	678.4
236.598	673
236.978	681.8
237.358	686.4
237.738	681.6
238.119	702.4
238.499	677.2
238.88	695
239.26	698.4
239.641	673.4
240.021	677
240.402	680.6
240.783	672.8
241.163	678.4
241.544	690
241.925	688.2
242.306	694.6
242.687	673.8
243.069	691.4
243.45	687.4
243.831	675.2
244.212	678.4
244.594	723.8
244.975	688.4
245.357	683.8
245.739	676.4
246.12	688.4
246.502	700
246.884	686
247.266	672.4
247.648	682.8
248.03	707
248.412	687.8
248.794	684.2
249.176	682.4
249.559	693.6
249.941	673
250.323	678
250.706	682.4
251.089	686.4
251.471	685
251.854	689.6
252.237	681.2
252.62	688.4
253.002	687.2
253.385	688.2
253.769	704.8
254.152	688.4
254.535	696.6
254.918	681
255.301	680.8
255.685	678.6
256.068	675.2
256.452	716.6
256.835	697.8
257.219	689.8
257.603	689.8
257.986	687.4
258.37	691.6
258.754	670.6
259.138	693.6
259.522	693.4
259.906	682
260.29	684.2
260.675	684
261.059	685.8
261.443	679.4
261.828	688
262.212	695.8
262.597	667.6
262.981	680
263.366	686.4
263.751	684
264.136	672
264.521	676.4
264.906	673
265.291	697.6
265.676	679.2
266.061	694.2
266.446	704
266.831	683.8
267.217	706.2
267.602	692.6
267.987	683.2
268.373	682.4
268.759	694.4
269.144	694.2
269.53	684.6
269.916	683.8
270.302	680.8
270.688	686.4
271.074	693.4
271.46	700.4
271.846	722.2
272.232	687.8
272.618	682.8
273.004	689
273.391	692.4
273.777	706.4
274.164	691.8
274.55	700.8
274.937	697.6
275.324	692
275.71	697
276.097	695.2
276.484	678
276.871	695.8
277.258	693.2
277.645	672.2
278.032	690
278.419	681.2
278.807	692.6
279.194	674.8
279.581	675.8
279.969	685.4
280.356	685
280.744	680
281.131	717.2
281.519	696
281.907	676.6
282.295	688.4
282.682	694.8
283.07	687.2
283.458	695.2
283.846	688.2
284.235	695.2
284.623	695.2
285.011	665
285.399	678.6
285.788	674.2
286.176	663.6
286.565	697.4
286.953	678
287.342	675.6
287.731	675.8
288.119	673.8
288.508	680.4
288.897	682.4
289.286	683.4
289.675	694.2
290.064	704.4
290.453	676
290.821	676.4
291.21	709.4
291.599	683.8
291.989	692
292.378	697.6
292.768	702.6
293.157	690
293.547	690.6
293.936	671.4
294.326	683.8
294.716	695.4
295.106	682
295.496	699
295.886	690.6
296.276	680.8
296.666	680
297.056	682.4
297.446	673.2
297.836	706.6
298.227	680.6
298.617	676.8
299.008	703.6
299.398	692.2
299.789	681.6
300.179	689
300.57	703.8
300.961	686.6
301.352	675.2
301.742	697.8
302.133	689.6
302.524	689.4
302.915	685.6
303.307	675.2
303.698	697.8
304.089	690.2
304.48	683.4
304.872	697
305.263	688.8
305.655	687.2
306.046	687.6
306.438	700.2
306.829	680.8
307.221	703.6
307.613	692.2
308.005	692.4
308.397	700.2
308.789	710
309.181	720.2
309.573	701.4
309.965	697
310.357	680.4
310.749	713.4
311.142	682.8
311.534	686.6
311.926	702.2
312.319	699.8
312.711	682.2
313.104	699.4
313.497	682
313.889	739.2
314.282	704.8
314.675	728.2
315.068	692.2
315.461	701
315.854	719
316.247	698.2
316.64	691.6
317.033	692.4
317.405	697.8
317.798	684.2
318.192	685.8
318.585	679
318.979	690
319.372	680.2
319.766	690.8
320.16	693
320.553	706.2
320.947	707.8
321.341	679
321.735	684
322.129	685
322.523	713.8
322.917	678.2
323.311	701.2
323.705	694
324.099	691.4
324.494	705.6
324.888	696.6
325.282	689.2
325.677	698.6
326.071	688.8
326.466	711.6
326.861	703.8
327.255	705.6
327.65	701.6
328.045	708.2
328.44	693.2
328.835	693.6
329.23	678.6
329.625	717.6
330.02	687.8
330.415	710.2
330.81	692.6
331.206	699.8
331.601	683.8
331.996	694.2
332.37	706.8
332.766	677.4
333.161	715.2
333.557	687.2
333.953	698.2
334.348	1202.4
334.744	687.4
335.14	681.8
335.536	689.4
335.932	708
336.328	690.2
336.724	698.8
337.12	686
337.516	692.2
337.913	693.2
338.309	701
338.705	687.2
339.102	695
339.498	681.2
339.895	709.4
340.291	688.4
340.688	692.6
341.085	680.8
341.481	687.2
341.878	688.6
342.275	712.2
342.672	679.4
343.069	684.6
343.466	680
343.842	703.4
344.239	675.8
344.636	685.8
345.033	672.4
345.431	689.4
345.828	691.4
346.225	685.6
346.623	725
347.02	690.4
347.418	701
347.816	705.6
348.213	669.6
348.611	692.4
349.009	675.6
349.407	693.6
349.805	680.2
350.203	662.8
350.601	691.4
350.999	674
351.397	726.8
351.795	689.8
352.193	694.2
352.57	690
352.969	692
353.367	681.4
353.766	678
354.164	680
354.563	691.8
354.961	679.6
355.36	674.6
355.759	682.2
356.158	670.4
356.557	668.4
356.956	677.6
357.355	673.2
357.754	696.6
358.153	691
358.552	702
358.951	683.4
359.35	697
359.75	675.6
360.149	675.4
360.527	671.6
360.926	680
361.326	680.4
361.726	681.2
362.125	675.2
362.525	690
362.925	679
363.325	675.6
363.724	686.4
364.124	678.6
364.524	671.6
364.924	680.6
365.324	699.8
365.725	663
366.125	680.8
366.525	685.6
366.904	669.4
367.304	666.6
367.705	709.4
368.105	699.4
368.506	678.2
368.906	673.6
369.307	683
369.708	684.2
370.108	662.2
370.509	688
370.91	673.6
371.311	684.2
371.712	686.8
372.113	672
372.514	669
372.894	686
373.295	672.2
373.696	692.6
374.097	688
374.499	721.4
374.9	677.8
375.301	671
375.703	681.2
376.105	668
376.506	688
376.908	684.4
377.309	673.6
377.711	681
378.113	670.2
378.493	681
378.895	677.2
379.297	694.2
379.699	662.2
380.102	684.6
380.504	675
380.906	674.2
381.308	709.8
381.71	675.4
382.113	694.2
382.515	677.2
382.918	685.8
383.299	679
383.701	693.8
384.104	681.8
384.507	663.4
384.909	674
385.312	661.4
385.715	663
386.118	679
386.521	668.2
386.924	691.8
387.327	668.4
387.709	665.6
388.112	648.8
388.515	668.4
388.918	671.2
389.322	678.2
389.725	669.8
390.129	699
390.532	673.2
390.936	663.4
391.339	664.2
391.743	675.2
392.125	677.8
392.529	694.4
392.933	693.6
393.337	678.4
393.74	677.6
394.144	665
394.548	669.8
394.953	681.2
395.357	682.6
395.761	678
396.144	677
396.548	678.8
396.952	682.2
397.357	680.2
397.761	672.2
398.166	671.2
398.57	682.4
398.975	655.8
399.379	679.2
399.763	730.2
400.168	681.2
400.572	677.6
400.977	684.8
401.382	695.4
401.787	688.4
402.192	687.6
402.597	690.8
403.002	667.2
403.386	688.8
403.791	703
404.197	664.8
404.602	676.8
405.007	681
405.413	676.8
405.818	679.6
406.224	673.8
406.608	671.6
407.014	665.8
407.42	695.6
407.825	682.8
408.231	689.2
408.637	690.2
409.043	701.6
409.449	673.8
409.834	678.8
410.24	683.2
410.646	688
411.052	687.8
411.458	688.2
411.865	694.2
412.271	693
412.677	683.2
413.062	693.2
413.469	669.4
413.875	712
414.282	708
414.689	686.6
415.095	693.4
415.502	679
415.888	684.6
416.294	665.6
416.701	727.2
417.108	680.2
417.515	703.2
417.923	675.8
418.33	703.4
418.715	688
419.123	683.4
419.53	682.2
419.937	683.8
420.345	695.8
420.752	675.2
421.16	697.8
421.546	681
421.953	692.8
422.361	676.8
422.769	687.4
423.177	674.8
423.585	713.4
423.992	709.2
424.379	697.6
424.787	696
425.195	701.2
425.603	686.2
426.011	696.4
426.419	693.8
426.806	676.2
427.214	688.6
427.623	698.2
428.031	694
428.44	678
428.848	693.4
429.235	706.2
429.644	689.2
430.053	688
430.461	698.2
430.87	717.6
431.279	690
431.666	677.6
432.075	681.8
432.484	688.6
432.893	684.8
433.302	709.4
433.711	750
434.099	687.6
434.508	679.2
434.918	667.2
435.327	691.4
435.737	689
436.125	680.4
436.534	689.2
436.944	688.2
437.353	687
437.763	703.8
438.173	678.2
438.561	690.4
438.971	666.6
439.381	674.6
439.791	686.4
440.201	664.2
440.589	683
440.999	684.2
441.409	685.8
441.819	666.2
442.23	686
442.619	696
443.029	685.6
443.439	692.2
443.85	688.6
444.26	692.2
444.649	683.8
445.06	682
445.471	677
445.881	685.2
446.292	704
446.682	697.4
447.092	663.6
447.503	741.8
447.914	681.2
448.325	676.2
448.715	677
449.126	673.6
449.537	677
449.948	684.6
450.338	674.8
450.75	690.6
451.161	689.4
451.572	690.4
451.984	672.6
452.374	656.2
452.786	675.8
453.197	680.8
453.609	693
453.999	666.8
454.411	665
454.823	694.4
455.235	681.2
455.647	675.4
456.037	683
456.449	656.8
456.862	673.2
457.274	680.4
457.665	669.6
458.077	680.2
458.489	722
458.902	678.6
459.293	680.8
459.705	681.2
460.118	667.6
460.53	683.2
460.921	668.6
461.334	684
461.747	679.2
462.16	700.8
462.551	699.6
462.964	684.4
463.377	660.4
463.79	679.2
464.182	685.6
464.595	667.8
465.008	678
465.421	681.4
465.813	665.6
466.226	675.4
466.64	678.6
467.053	730.6
467.445	675.4
467.859	695.6
468.272	666.8
468.686	687.8
469.078	671.8
469.492	661
469.906	681.4
470.298	680.8
470.712	674.2
471.126	738.8
471.54	663.2
471.933	658.2
472.347	673.2
472.761	663.8
473.175	668.2
473.568	672.6
473.982	667.4
474.397	670.4
474.79	664.4
475.204	685.4
475.619	674.4
476.033	681.8
476.426	682.8
476.841	669.6
477.256	701
477.649	656.2
478.064	661.8
478.479	668.4
478.872	660.6
479.287	660
479.702	668.2
480.118	669.4
480.511	670.4
480.927	668.2
481.342	663.8
481.736	679.6
482.151	670.6
482.566	681.4
482.96	676
483.376	684.6
483.792	672.6
484.186	676.2
484.602	665.4
485.017	668.6
485.412	676.8
485.827	672.6
486.243	676
486.638	704.2
487.054	683.4
487.47	687.6
487.865	663.8
488.281	669.6
488.697	668.8
489.092	673.4
489.508	665.4
489.925	684.8
490.32	657.2
490.736	675.4
491.153	670
491.548	674
491.964	682.8
492.381	653.6
492.776	664.4
493.193	661.6
493.61	669.6
494.006	675.6
494.422	675.2
494.84	658.4
495.235	679
495.652	676.6
496.069	666.4
496.465	657.6
496.883	667
497.3	696.6
497.696	668.8
498.113	677.4
498.509	655.8
498.927	662.8
499.344	659.8
499.741	655.6
500.158	678.6
500.576	680.8
500.973	673.4
501.39	664.8
501.787	657.6
502.205	680.6
502.623	662
503.02	655.4
503.438	660.6
503.856	662.6
504.253	671.2
504.671	668.6
505.068	663.4
505.486	669.6
505.905	689.4
506.302	667
506.72	675.4
507.118	658.8
507.536	673.2
507.955	671.6
508.352	672.8
508.771	682.8
509.169	673.6
509.587	664.4
510.006	671.6
510.404	661.4
510.823	662.6
511.221	670.4
511.64	658.8
512.038	688.8
512.457	658.6
512.877	675.2
513.275	668.8
513.694	670.8
514.092	660.2
514.512	673.4
514.91	671.2
515.33	672.2
515.749	667.2
516.148	666.8
516.568	679.4
516.966	672.4
517.386	663.2
517.785	663.6
518.205	663
518.603	660.2
519.024	658
519.444	673.2
519.843	671.6
520.263	682.6
520.662	671.6
521.082	672.8
521.481	668.6
521.902	678.6
522.301	668.2
522.722	666.4
523.121	662.6
523.542	667.4
523.963	668.6
524.362	681
524.783	664.6
525.183	657
525.604	668.4
526.003	663
526.425	656.4
526.824	670.4
527.246	684.6
527.646	683
528.067	658.6
528.467	671.6
528.888	670.8
529.289	665.8
529.71	672.2
530.11	665.8
530.532	662
530.932	660.6
531.354	660.6
531.755	703
532.176	674
532.577	659.6
532.999	667.4
533.4	668.2
533.822	678.8
534.223	673.8
534.645	667.2
535.046	670.4
535.468	669
535.869	684.6
536.292	667.8
536.693	711.4
537.115	666.8
537.516	662.6
537.939	655.4
538.34	696.4
538.742	676.2
539.165	673
539.566	661.6
539.989	664.8
540.391	662.2
540.814	664.2
541.216	669.6
541.639	674
542.041	680.8
542.464	659.8
542.866	668
543.268	658.4
543.691	677.6
544.093	674.6
544.517	690.2
544.919	660.4
545.343	687.8
545.745	656.2
546.147	670.8
546.571	659.6
546.974	653
547.398	674
547.8	681.2
548.224	663.6
548.627	649.8
549.03	678
549.454	655.6
549.857	661.4
550.281	667.6
550.684	660.4
551.087	680
551.512	670.6
551.915	675.8
552.34	670
552.743	672
553.146	665.2
553.571	674
553.975	694.6
554.399	662.6
554.803	726.4
555.207	666.2
555.632	664.2
556.036	671.4
556.461	658.4
556.865	666.8
557.268	659.2
557.694	659.6
558.098	667.2
558.502	671.4
558.927	657
559.332	669.2
559.736	669.4
560.162	672.6
560.566	658.4
560.992	673.2
561.396	665.4
561.801	665.8
562.227	668.4
562.631	664.4
563.036	666.6
563.462	673.6
563.867	662.2
564.272	653.8
564.698	672.8
565.103	655.6
565.508	694.4
565.935	663.6
566.34	668.2
566.745	677.8
567.172	667.2
567.577	697.2
567.982	692.4
568.409	677
568.815	659.2
569.22	672.2
569.626	674.2
570.053	658.4
570.459	675
570.865	674.8
571.292	677.4
571.698	668.8
572.104	646.4
572.531	655.6
572.937	672.8
573.343	668
573.75	661.4
574.177	676
574.583	677.6
574.99	660.8
575.396	674.2
575.824	662
576.231	664.8
576.637	658.8
577.065	694.4
577.472	661.6
577.879	661
578.286	679.6
578.714	657.6
579.121	661
579.528	670.4
579.935	672.6
580.364	660.6
580.771	646.8
581.178	652.8
581.585	666.8
582.014	665.8
582.421	652.4
582.829	659.8
583.236	684.6
583.644	659.4
584.073	664.6
584.481	662.4
584.889	650.4
585.296	671.4
585.726	668.6
586.134	648.6
586.542	665.2
586.95	684
587.358	657.2
587.787	663.4
588.196	641.8
588.604	666.8
589.012	664.6
589.421	646.8
589.851	659.4
590.259	663.8
590.668	657.4
591.076	702.4
591.485	667
591.894	662
592.324	679.4
592.733	680.2
593.142	651.2
593.551	656
593.96	703.8
594.369	649.4
594.8	656.2
595.209	661.4
595.618	636.8
596.028	664.2
596.437	648.6
596.847	660
597.256	659.8
597.687	663.2
598.097	650.2
598.507	643
598.917	656.4
599.327	666
599.736	659
600.146	675.8
600.556	656.6
600.988	678.6
601.398	663.6
601.808	665
602.219	654.6
602.629	664
603.039	663.8
603.45	692
603.86	664.2
604.271	683.8
604.703	664.4
605.114	661.4
605.525	664.4
605.935	672.4
606.346	683
606.757	671.2
607.168	654.6
607.579	647
607.99	674
608.402	658.2
608.813	661.2
609.224	658.4
609.636	654.2
610.047	662.6
610.48	663
610.892	669.2
611.303	678.8
611.715	657.4
612.127	652.8
612.539	666
612.95	668
613.362	647.8
613.774	655.4
614.186	666.2
614.599	659.2
615.011	668.2
615.423	655
615.835	662.6
616.248	655.6
616.66	674
617.073	652.2
617.485	662.6
617.898	674
618.311	670
618.723	659.6
619.136	696
619.549	679
619.962	679.4
620.375	657.6
620.788	666.8
621.201	665.4
621.614	677.4
622.028	659.6
622.441	669.8
622.854	678.6
623.268	656.4
623.681	673.8
624.095	664.6
624.509	672
624.922	668.4
625.336	648
625.728	666.2
626.142	675.2
626.556	677.6
626.97	669.8
627.384	649
627.799	667
628.213	667.6
628.627	656.4
629.041	655
629.456	661.8
629.87	655.4
630.285	673
630.699	670.6
631.093	654.8
631.507	662.8
631.922	674.6
632.337	685.2
632.752	648.2
633.167	669.2
633.582	659.2
633.997	651.8
634.412	646.6
634.806	663.8
635.221	648.2
635.637	674.2
636.052	641.4
636.468	655.8
636.883	676
637.299	662.6
637.715	659.8
638.109	653.4
638.525	647.6
638.941	674.6
639.357	662.6
639.773	660.6
640.189	655.2
640.584	657.8
641	660.4
641.416	647
641.832	659.6
642.249	658.4
642.665	660
643.06	670.6
643.477	668.6
643.894	649
644.31	662.6
644.727	651.4
645.123	659.4
645.54	664.6
645.957	668.6
646.374	674.8
646.77	667.2
647.187	699.8
647.604	660.8
648.021	631
648.439	659.4
648.835	664.6
649.252	664.4
649.67	653.6
650.088	654
650.484	662.6
650.902	668.2
651.32	665.4
651.738	654.4
652.134	660.4
652.552	688.8
652.971	667.2
653.389	660.2
653.786	666.4
654.204	672.8
654.622	657.4
655.019	659.4
655.438	669
655.857	663.8
656.275	662.2
656.673	653.8
657.091	744.8
657.51	653
657.908	663.8
658.327	694.6
658.746	653.8
659.144	661
659.563	674.2
659.982	667.6
660.38	650.4
660.8	658.6
661.219	669.8
661.617	659.4
662.037	657
662.457	679.2
662.855	639
663.275	697.2
663.695	654.8
664.094	652.4
664.514	663.6
664.934	643.4
665.333	665
665.753	655.6
666.152	648.8
666.572	645.4
666.993	668.6
667.392	658.2
667.812	649.2
668.212	658
668.632	681.8
669.053	658.8
669.453	661.2
669.874	664.4
670.273	670.6
670.694	655.6
671.116	667.8
671.515	677
671.937	659.6
672.337	651.2
672.758	653.8
673.158	667.6
673.58	647.6
673.98	658.2
674.402	675.4
674.824	658.6
675.224	652.4
675.646	647.2
676.047	648.4
676.469	652.2
676.869	667.8
677.292	662.8
677.693	647.4
678.115	652.8
678.516	662.2
678.939	666.2
679.34	660
679.762	670.2
680.164	671
680.586	649.8
680.988	664
681.411	675.8
681.812	650.6
682.236	652.6
682.637	652.6
683.061	652.2
683.462	665.4
683.864	648.8
684.288	658.8
684.69	647.4
685.114	670.6
685.516	672.8
685.94	649.6
686.342	679.8
686.766	650.8
687.168	659.2
687.571	679.6
687.995	663.6
688.398	646.2
688.822	656
689.225	680.4
689.628	672.4
690.052	655
690.456	659
690.88	668
691.284	640
691.687	663.8
692.112	646.4
692.515	643.8
692.919	654.4
693.344	664.8
693.747	659
694.173	649.2
694.577	674
694.98	660.4
695.406	651.2
695.81	660
696.214	668.2
696.64	657.4
697.044	660.2
697.448	674.4
697.874	649.6
698.279	657.4
698.684	645.6
699.11	647.4
699.514	653.4
699.919	651.4
700.324	644.6
700.75	654.6
701.156	655.4
701.561	665.4
701.987	661.4
702.393	670.4
702.798	666.8
703.203	655.2
703.63	644.4
704.036	651.8
704.442	651.8
704.847	649.8
705.274	652.4
705.68	664.8
706.086	674.8
706.492	646.8
706.92	649.6
707.326	662.4
707.732	652.6
708.139	653.2
708.545	653
708.973	655.4
709.38	657.8
709.786	644.2
710.193	672.4
710.6	660.8
711.028	647.2
711.435	659
711.842	649.4
712.249	652.4
712.656	649.2
713.064	672.2
713.492	652
713.9	652.6
714.307	662.6
714.715	654
715.123	667.6
715.53	669.4
715.938	662.2
716.367	658
716.775	661.4
717.184	636.4
717.592	653.2
718	673.8
718.408	695
718.816	708.6
719.225	655
719.633	656.2
720.042	651.2
720.472	646.8
720.881	681.4
721.29	665.8
721.699	647.6
722.108	670.2
722.517	651.4
722.926	661.4
723.335	665.2
723.744	657.6
724.154	650.8
724.563	660.8
724.973	672.8
725.382	667.2
725.792	658.2
726.202	653.4
726.612	679.6
727.022	647
727.432	648.2
779.813	645.6
780.223	701.8
780.634	655.4
781.044	650.6
781.454	653.2
781.865	666.6
782.276	651
782.686	671.8
783.097	661.8
783.508	653
783.919	665.8
784.33	675
784.741	669.4
785.152	644.2
785.563	638.4
785.974	647.8
786.386	665
786.776	655.8
787.188	658.2
787.599	647.8
788.011	672.8
788.423	668.2
788.835	653.6
789.247	637.8
789.659	654.4
790.071	650.4
790.483	702.4
790.874	652.6
791.286	661.8
791.699	648.2
792.111	653.4
792.524	662.2
792.937	645.4
793.349	643.6
793.741	647.4
794.154	644.6
794.567	678.4
794.98	655.2
795.393	649.8
795.785	679.4
796.198	647.4
796.612	661
797.026	645.6
797.439	643
797.831	658.4
798.245	654.4
798.659	648.8
799.073	650.6
799.487	649
799.88	657.4
800.294	661
800.708	662.2
801.123	650
801.516	677.2
801.93	644
802.345	637.2
802.76	655.4
803.153	668
803.568	673.2
803.983	666.6
804.377	656.2
804.792	647
805.207	627
805.601	653.2
806.016	693.2
806.432	648.2
806.826	687.2
807.242	669.4
807.658	651.8
808.052	651.6
808.468	662.6
808.884	649.2
809.279	653
809.695	668
810.111	674
810.506	657.4
810.922	682
811.339	655.8
811.734	662.2
812.151	658
812.546	653.6
812.963	661.2
813.38	657.6
813.776	662.6
814.193	679.2
814.589	649.8
815.006	641.6
815.402	655.8
815.82	639.6
816.237	649
816.633	646.8
817.051	644.2
817.448	649.6
817.866	642.4
818.262	676.8
818.68	645.2
819.077	653.4
819.495	658
819.892	705.8
820.311	639.6
820.708	642.2
821.127	646.4
821.524	673.4
821.943	659.8
822.34	673.6
822.759	658.8
823.157	659.2
823.576	668.4
823.974	669
824.393	726
824.791	646.6
825.189	644.4
825.609	650.2
826.007	661.2
826.427	633.8
826.826	659
827.246	660.2
827.644	642.6
828.043	672.2
828.463	647.6
828.862	657.2
829.261	657
829.682	647.2
830.081	654.8
830.502	638.4
830.901	654.6
831.301	639
831.722	638.2
832.121	650.4
832.521	650.8
832.943	643.4
833.342	649.8
833.742	638.8
834.164	655.2
834.564	637.4
834.965	655.6
835.386	652.2
835.787	648.6
836.188	652.2
836.588	657
837.01	646.4
837.411	642
837.812	665
838.213	666.8
838.636	655.4
839.037	735.4
839.438	662.8
839.84	659.4
840.263	659.4
840.664	657.2
841.066	652
841.468	665.6
841.891	650.8
842.293	666
842.695	659.6
843.098	668.2
843.5	654.6
843.902	659.2
844.326	663.2
844.729	649
845.131	665.6
845.534	661.8
845.937	667.4
846.34	677.6
846.764	660.8
847.167	657.8
847.571	647.4
847.974	653
848.377	651.6
848.781	701.2
849.184	663.6
849.588	645.6
849.992	651.2
850.396	657.6
850.821	677.6
851.225	657.2
851.63	657.2
852.034	658
852.438	654.8
852.843	787.8
853.247	646.2
853.652	639.4
854.057	668.2
854.462	663.8
854.867	653.8
