#lambda/nm	C1
208.295	548.4
208.67	488.8
209.045	455.8
209.419	452.4
209.794	689.6
210.169	675
210.544	809.6
210.919	701
211.295	685.2
211.67	682.8
212.045	685.6
212.421	683
212.796	735.4
213.172	684.6
213.547	681.8
213.923	679
214.299	685.4
214.675	692.8
215.051	696.2
215.427	697.8
215.803	719.8
216.179	693.4
216.555	678.2
216.932	698
217.308	689.6
217.684	692.6
218.061	698
218.438	690.8
218.814	685.6
219.191	702.8
219.568	675
219.945	680.6
220.322	695.4
220.699	701.8
221.076	701.4
221.453	695.4
221.83	673.4
222.208	681.8
222.585	687.6
222.962	694
223.34	690
223.717	691.8
224.095	690.8
224.473	689.4
224.851	686.2
225.229	678.8
225.607	712.2
225.985	678.2
226.363	687.8
226.741	687.4
227.119	689.2
227.497	694
227.876	675.4
228.254	690.2
228.633	695.8
229.011	694.6
229.39	698.6
229.769	690.2
230.148	695.2
230.527	713.8
230.905	693.4
231.284	684
231.664	680.2
232.043	698.2
232.422	706.6
232.801	685.2
233.181	696.6
233.56	695
233.94	690
234.319	680
234.699	684.6
235.079	732.6
235.458	729
235.838	718.8
236.218	680.6
236.598	672.6
236.978	686.8
237.358	681.6
237.738	686
238.119	691.2
238.499	672
238.88	687.2
239.26	705.8
239.641	678.2
240.021	679.6
240.402	678.6
240.783	676.2
241.163	689.8
241.544	685.2
241.925	680.6
242.306	702.2
242.687	677.6
243.069	692.6
243.45	697.6
243.831	679
244.212	669.4
244.594	729.2
244.975	698
245.357	693.6
245.739	683.6
246.12	692.6
246.502	705
246.884	691
247.266	684.8
247.648	692.2
248.03	714.4
248.412	699
248.794	704.8
249.176	690.6
249.559	699.8
249.941	687
250.323	673.6
250.706	683
251.089	684
251.471	692
251.854	696.4
252.237	695
252.62	697
253.002	682.4
253.385	684.4
253.769	707.6
254.152	687.6
254.535	693.8
254.918	675.6
255.301	684.4
255.685	688.8
256.068	675.4
256.452	712.2
256.835	691.8
257.219	691.8
257.603	703.6
257.986	682.2
258.37	699
258.754	677.6
259.138	698.8
259.522	710.8
259.906	688.2
260.29	693.4
260.675	682.2
261.059	694.4
261.443	681.4
261.828	698.8
262.212	693.4
262.597	677
262.981	685.8
263.366	698.8
263.751	693
264.136	685.4
264.521	688.2
264.906	679.8
265.291	707.2
265.676	690
266.061	697.8
266.446	723.2
266.831	690.8
267.217	714.4
267.602	689
267.987	692.2
268.373	679.6
268.759	712.8
269.144	698.8
269.53	692.4
269.916	682.2
270.302	683
270.688	687.2
271.074	693.8
271.46	706.4
271.846	724.6
272.232	690
272.618	683.6
273.004	688.2
273.391	696.6
273.777	702.4
274.164	687.6
274.55	703.8
274.937	696.6
275.324	682.8
275.71	698
276.097	688
276.484	676.4
276.871	690.4
277.258	692.8
277.645	678.2
278.032	687.6
278.419	679.2
278.807	696
279.194	670.6
279.581	683.2
279.969	693
280.356	683
280.744	690.2
281.131	714.2
281.519	705.6
281.907	686.8
282.295	678.4
282.682	706
283.07	694.4
283.458	702.2
283.846	694.8
284.235	702.6
284.623	696.8
285.011	687
285.399	691.4
285.788	689.4
286.176	674.6
286.565	696.6
286.953	674
287.342	677.8
287.731	672.6
288.119	683
288.508	687
288.897	693.2
289.286	675.8
289.675	686.2
290.064	699.8
290.453	687.4
290.821	690.2
291.21	694.4
291.599	685.6
291.989	692.4
292.378	695.2
292.768	706.6
293.157	695.6
293.547	709.2
293.936	678
294.326	686.8
294.716	685
295.106	684.6
295.496	697.2
295.886	693.8
296.276	685.4
296.666	674.2
297.056	685
297.446	676
297.836	703.6
298.227	684.8
298.617	695
299.008	709.2
299.398	685.2
299.789	681.8
300.179	694.2
300.57	705
300.961	686
301.352	688.2
301.742	703.8
302.133	689
302.524	699
302.915	687
303.307	688.2
303.698	705.8
304.089	693.6
304.48	699.8
304.872	706.4
305.263	699.4
305.655	688.6
306.046	694
306.438	694
306.829	692.8
307.221	711.4
307.613	694.2
308.005	705.8
308.397	709.6
308.789	718.6
309.181	718.8
309.573	704.4
309.965	703.6
310.357	699.8
310.749	711.4
311.142	691.6
311.534	681.2
311.926	693
312.319	691.6
312.711	683.4
313.104	704.8
313.497	693
313.889	740.6
314.282	716.8
314.675	726.4
315.068	692.6
315.461	705.4
315.854	735.2
316.247	708.8
316.64	695.6
317.033	699.2
317.405	709
317.798	691.6
318.192	694.6
318.585	682.4
318.979	690.8
319.372	684.2
319.766	688.4
320.16	705.6
320.553	713
320.947	715.2
321.341	691.2
321.735	691.4
322.129	676.6
322.523	721.8
322.917	685.6
323.311	699.2
323.705	694.4
324.099	711.2
324.494	714.6
324.888	705
325.282	696.4
325.677	709.8
326.071	710.8
326.466	707
326.861	704.2
327.255	708.4
327.65	713.8
328.045	718.4
328.44	687.8
328.835	687
329.23	687.6
329.625	722
330.02	686
330.415	719.8
330.81	696.8
331.206	690.4
331.601	689.2
331.996	710
332.37	725.8
332.766	673.4
333.161	716.6
333.557	682.4
333.953	700.2
334.348	1188.6
334.744	702.8
335.14	687
335.536	694.4
335.932	707.4
336.328	696.2
336.724	699
337.12	692.4
337.516	699.8
337.913	697.4
338.309	710
338.705	693.2
339.102	707.2
339.498	688.6
339.895	706.8
340.291	684.8
340.688	705.6
341.085	686.6
341.481	693.6
341.878	683
342.275	717.6
342.672	680
343.069	688
343.466	680.8
343.842	708.4
344.239	692.6
344.636	690.4
345.033	685.6
345.431	675.4
345.828	690.2
346.225	684.8
346.623	733.8
347.02	683
347.418	696.6
347.816	708.8
348.213	682.4
348.611	695.4
349.009	687.8
349.407	699.8
349.805	682
350.203	667.2
350.601	701.4
350.999	683.8
351.397	754.6
351.795	692
352.193	691.8
352.57	699.8
352.969	700
353.367	670
353.766	686.4
354.164	693.8
354.563	700.8
354.961	682
355.36	683.6
355.759	685
356.158	679.2
356.557	679
356.956	679.6
357.355	671.2
357.754	694.4
358.153	691.6
358.552	713.4
358.951	690.2
359.35	697.8
359.75	680.2
360.149	675.8
360.527	671
360.926	679
361.326	686.2
361.726	685
362.125	675
362.525	689.8
362.925	689
363.325	692.4
363.724	680.8
364.124	675.6
364.524	679
364.924	687.8
365.324	702.6
365.725	669.4
366.125	690.6
366.525	682.2
366.904	684
367.304	667.4
367.705	701
368.105	698.6
368.506	682.6
368.906	687.6
369.307	682.4
369.708	693.8
370.108	674.4
370.509	700
370.91	673.6
371.311	697
371.712	686.8
372.113	684.8
372.514	674.2
372.894	683
373.295	673.2
373.696	694.4
374.097	694.6
374.499	724
374.9	691.2
375.301	677.4
375.703	683.8
376.105	678.8
376.506	697.4
376.908	686.2
377.309	684.2
377.711	689.2
378.113	672.2
378.493	681.4
378.895	678.4
379.297	692.4
379.699	667.4
380.102	679.2
380.504	676.8
380.906	676
381.308	699.2
381.71	681.4
382.113	693.6
382.515	668.4
382.918	693.2
383.299	684.8
383.701	694
384.104	679.6
384.507	659
384.909	686.4
385.312	669.4
385.715	667.6
386.118	687.4
386.521	666
386.924	691.8
387.327	666.4
387.709	660.4
388.112	663
388.515	678
388.918	676.6
389.322	690.6
389.725	676.8
390.129	705.2
390.532	684.8
390.936	675.2
391.339	674.8
391.743	684.8
392.125	671.2
392.529	688.2
392.933	693
393.337	692.8
393.74	688
394.144	676.6
394.548	671
394.953	684.4
395.357	685.6
395.761	674.4
396.144	682
396.548	677.8
396.952	683.8
397.357	684.4
397.761	675
398.166	675.8
398.57	679.8
398.975	669.2
399.379	675.4
399.763	739.6
400.168	681.2
400.572	684.8
400.977	680.6
401.382	699.8
401.787	690.2
402.192	692.6
402.597	695.4
403.002	668.8
403.386	696.2
403.791	696
404.197	675.8
404.602	685.4
405.007	681.8
405.413	681.2
405.818	687.2
406.224	670.4
406.608	685.6
407.014	666.6
407.42	706.4
407.825	683.2
408.231	692
408.637	695
409.043	696.2
409.449	680.2
409.834	671.2
410.24	679.6
410.646	695.8
411.052	695.4
411.458	688
411.865	700.2
412.271	690.8
412.677	674
413.062	696
413.469	674.4
413.875	712.8
414.282	707
414.689	689
415.095	686.4
415.502	679.6
415.888	678.6
416.294	666.6
416.701	727.2
417.108	683
417.515	688
417.923	687.6
418.33	696.6
418.715	702.2
419.123	684
419.53	682.8
419.937	691.2
420.345	699.4
420.752	681.6
421.16	701.8
421.546	686.6
421.953	693.4
422.361	681.2
422.769	686.2
423.177	677.2
423.585	714.2
423.992	710.6
424.379	703.2
424.787	699.8
425.195	715.6
425.603	690.6
426.011	705.6
426.419	696
426.806	686.6
427.214	692
427.623	707.2
428.031	716.2
428.44	693.2
428.848	711.2
429.235	722.4
429.644	699
430.053	696.6
430.461	721
430.87	730.4
431.279	726.4
431.666	711.4
432.075	719.4
432.484	722.2
432.893	730.4
433.302	764.6
433.711	790.2
434.099	745.6
434.508	748.6
434.918	754
435.327	766.6
435.737	768.4
436.125	783.8
436.534	785.2
436.944	788.4
437.353	808
437.763	835.6
438.173	795.4
438.561	823
438.971	801.6
439.381	813.6
439.791	837.2
440.201	812.8
440.589	844
440.999	853.2
441.409	841
441.819	829.4
442.23	873.8
442.619	863.2
443.029	857.6
443.439	862.6
443.85	880
444.26	894.6
444.649	883.6
445.06	885.6
445.471	880.2
445.881	898.2
446.292	914.8
446.682	919.8
447.092	877.8
447.503	958
447.914	903
448.325	898.4
448.715	897.8
449.126	896
449.537	907.8
449.948	917.2
450.338	922.2
450.75	923.8
451.161	903.4
451.572	916.4
451.984	902.8
452.374	888
452.786	913.2
453.197	932
453.609	930.2
453.999	903.4
454.411	904.4
454.823	926.8
455.235	924.4
455.647	922.6
456.037	927
456.449	914.8
456.862	924.4
457.274	929.8
457.665	908.4
458.077	930.4
458.489	963
458.902	916
459.293	928.4
459.705	934
460.118	922.4
460.53	925.8
460.921	933.4
461.334	933.8
461.747	925.6
462.16	944.8
462.551	955.4
462.964	950.2
463.377	918.8
463.79	933.4
464.182	944.8
464.595	930.8
465.008	935.2
465.421	952.2
465.813	943
466.226	942.2
466.64	923.8
467.053	998.8
467.445	952.2
467.859	969.8
468.272	947.4
468.686	961.4
469.078	934.8
469.492	925.8
469.906	937
470.298	939
470.712	941.2
471.126	1004.4
471.54	932.8
471.933	930.2
472.347	943.2
472.761	932.8
473.175	932.8
473.568	929.2
473.982	924.2
474.397	936.4
474.79	930.6
475.204	938.2
475.619	934.6
476.033	940
476.426	938.4
476.841	933.6
477.256	950.8
477.649	935.6
478.064	926.8
478.479	926.2
478.872	919.2
479.287	908.6
479.702	918.6
480.118	915
480.511	911.8
480.927	914
481.342	917.8
481.736	922.4
482.151	901.8
482.566	923.8
482.96	916.4
483.376	925.2
483.792	892
484.186	914.8
484.602	891.8
485.017	902.8
485.412	912.4
485.827	911.4
486.243	901.4
486.638	927.4
487.054	902.4
487.47	928.6
487.865	899.2
488.281	903.4
488.697	888.6
489.092	878
489.508	896
489.925	904.4
490.32	891.2
490.736	887.6
491.153	895
491.548	887.2
491.964	887
492.381	865
492.776	889.6
493.193	875.6
493.61	893
494.006	876.8
494.422	886.8
494.84	878
495.235	888
495.652	876.6
496.069	880
496.465	866
496.883	864.2
497.3	904.6
497.696	862
498.113	873.4
498.509	849.6
498.927	853
499.344	851
499.741	847.2
500.158	864.4
500.576	869.4
500.973	862.2
501.39	840.8
501.787	842.8
502.205	853
502.623	846.4
503.02	828.6
503.438	838.8
503.856	835.8
504.253	852
504.671	848
505.068	837
505.486	834.4
505.905	866.4
506.302	846.6
506.72	848.4
507.118	821
507.536	842.8
507.955	833
508.352	835.6
508.771	834.4
509.169	838.2
509.587	828
510.006	821.6
510.404	813
510.823	805
511.221	821.4
511.64	806
512.038	833
512.457	814.8
512.877	813.8
513.275	797.6
513.694	807.4
514.092	803.6
514.512	818.2
514.91	814
515.33	813.6
515.749	808
516.148	805.6
516.568	806
516.966	797
517.386	794.2
517.785	796.6
518.205	789.6
518.603	781
519.024	794.8
519.444	791.8
519.843	800.2
520.263	801.8
520.662	800
521.082	795.2
521.481	790
521.902	781.6
522.301	787
522.722	786.2
523.121	779.2
523.542	780
523.963	782.4
524.362	782.4
524.783	778
525.183	770
525.604	787.6
526.003	757.2
526.425	772.2
526.824	781.6
527.246	778.8
527.646	777.8
528.067	774.8
528.467	764.2
528.888	776.8
529.289	768.2
529.71	766.4
530.11	759.8
530.532	760.2
530.932	750
531.354	746.6
531.755	792
532.176	766.4
532.577	763.6
532.999	757
533.4	746.8
533.822	765.2
534.223	758.8
534.645	749
535.046	742.2
535.468	746.8
535.869	777.4
536.292	754
536.693	790.6
537.115	757
537.516	743
537.939	745.6
538.34	770
538.742	755.6
539.165	744.2
539.566	745
539.989	736.2
540.391	736.2
540.814	741.2
541.216	751.2
541.639	746
542.041	748.8
542.464	741.8
542.866	737.6
543.268	730
543.691	738
544.093	748
544.517	764.2
544.919	727
545.343	765.4
545.745	723
546.147	729.8
546.571	733.2
546.974	721
547.398	732.6
547.8	746
548.224	727.4
548.627	728
549.03	739.2
549.454	723.2
549.857	718.6
550.281	726.2
550.684	723.6
551.087	743.4
551.512	727.6
551.915	724.4
552.34	731
552.743	720.2
553.146	728.6
553.571	716.6
553.975	749.2
554.399	708.4
554.803	779.2
555.207	719.4
555.632	713.2
556.036	721.6
556.461	712
556.865	717.6
557.268	712.6
557.694	706.4
558.098	716.8
558.502	725.2
558.927	706.8
559.332	713
559.736	705
560.162	720.4
560.566	714.6
560.992	715.4
561.396	720.6
561.801	717.8
562.227	707.8
562.631	708.8
563.036	702.6
563.462	714
563.867	717.8
564.272	693
564.698	705.6
565.103	691.8
565.508	732.6
565.935	711
566.34	702.2
566.745	714.8
567.172	698.6
567.577	731
567.982	721
568.409	699.4
568.815	694
569.22	710.8
569.626	715.8
570.053	680.8
570.459	699.6
570.865	715.4
571.292	702.6
571.698	702.6
572.104	680.8
572.531	691.2
572.937	703.2
573.343	697.6
573.75	698.4
574.177	701.6
574.583	706.8
574.99	698
575.396	704.6
575.824	693.6
576.231	695.2
576.637	697.8
577.065	725
577.472	694.2
577.879	692
578.286	710.2
578.714	686.4
579.121	695.8
579.528	693.4
579.935	703.6
580.364	686.2
580.771	678.4
581.178	675.2
581.585	703.4
582.014	698
582.421	682.8
582.829	682.8
583.236	698.6
583.644	679.4
584.073	690.2
584.481	686.6
584.889	682.2
585.296	689.2
585.726	683.6
586.134	671.4
586.542	682.6
586.95	704.6
587.358	679.6
587.787	683.6
588.196	675.8
588.604	674.2
589.012	679.6
589.421	671.8
589.851	681.4
590.259	693.2
590.668	668
591.076	726.6
591.485	675.6
591.894	682.6
592.324	701.2
592.733	692.2
593.142	665.2
593.551	670.4
593.96	725.8
594.369	667.2
594.8	662.6
595.209	683.4
595.618	655.6
596.028	674.8
596.437	663
596.847	675
597.256	673.2
597.687	679.6
598.097	683.4
598.507	670.2
598.917	678
599.327	691
599.736	688.2
600.146	691.4
600.556	679
600.988	699.8
601.398	669
601.808	685.2
602.219	658.8
602.629	677.8
603.039	685.8
603.45	702.8
603.86	680.8
604.271	694.6
604.703	688.8
605.114	687.4
605.525	669.4
605.935	683.8
606.346	695.4
606.757	681.8
607.168	672.2
607.579	665.4
607.99	692.6
608.402	687.8
608.813	677
609.224	663.4
609.636	660.2
610.047	666
610.48	672.2
610.892	675.6
611.303	680.6
611.715	673
612.127	660.8
612.539	665.4
612.95	674
613.362	658.8
613.774	658.6
614.186	677.6
614.599	671
615.011	682.2
615.423	676.8
615.835	674
616.248	659.8
616.66	681.8
617.073	664
617.485	674
617.898	680.2
618.311	678
618.723	668.4
619.136	710.6
619.549	691.2
619.962	702.6
620.375	675.6
620.788	679.8
621.201	668
621.614	685.4
622.028	676.8
622.441	671.2
622.854	696.2
623.268	666
623.681	681
624.095	670
624.509	678.4
624.922	679.4
625.336	656.4
625.728	677.2
626.142	692.4
626.556	699.2
626.97	675.4
627.384	667.6
627.799	677.4
628.213	682.8
628.627	674
629.041	672.8
629.456	673.2
629.87	672
630.285	677.8
630.699	680.4
631.093	669.6
631.507	681.2
631.922	674.6
632.337	694.6
632.752	662.8
633.167	667.8
633.582	668.6
633.997	667.8
634.412	662.6
634.806	670.8
635.221	659.6
635.637	682
636.052	663.2
636.468	676.4
636.883	689.4
637.299	666.4
637.715	656.8
638.109	674.4
638.525	666.8
638.941	687.6
639.357	679
639.773	686.8
640.189	666.2
640.584	672
641	667.4
641.416	650.4
641.832	666.2
642.249	667
642.665	658.4
643.06	672.4
643.477	671.2
643.894	653.6
644.31	677.4
644.727	670.2
645.123	663.2
645.54	665
645.957	674
646.374	688.2
646.77	662.6
647.187	701.4
647.604	668.2
648.021	650.2
648.439	663
648.835	677.6
649.252	659.2
649.67	654
650.088	668.8
650.484	682.2
650.902	679.8
651.32	676.4
651.738	667
652.134	670
652.552	701.6
652.971	677.2
653.389	667
653.786	673
654.204	690.8
654.622	670.4
655.019	666.8
655.438	676.8
655.857	672.2
656.275	676
656.673	661.6
657.091	749.8
657.51	660.6
657.908	681.2
658.327	684.6
658.746	655.4
659.144	667
659.563	678.4
659.982	668
660.38	655
660.8	674.4
661.219	681
661.617	664.6
662.037	658.4
662.457	686.4
662.855	642
663.275	691.4
663.695	669.8
664.094	664.6
664.514	668.6
664.934	654.4
665.333	676.4
665.753	667.8
666.152	654.2
666.572	654.2
666.993	683.8
667.392	667.4
667.812	660
668.212	658.6
668.632	673.2
669.053	655.8
669.453	673.2
669.874	669.2
670.273	668.2
670.694	662.4
671.116	675
671.515	672
671.937	652.4
672.337	673.4
672.758	666
673.158	669.2
673.58	657
673.98	673.6
674.402	681.8
674.824	656.2
675.224	658.4
675.646	656.2
676.047	666.4
676.469	662.2
676.869	669.6
677.292	663.4
677.693	663.4
678.115	657.6
678.516	676
678.939	670
679.34	668.4
679.762	680
680.164	672.2
680.586	655.4
680.988	675.2
681.411	690
681.812	659.6
682.236	654.6
682.637	653.8
683.061	659
683.462	667.6
683.864	661.8
684.288	669
684.69	652.2
685.114	680.6
685.516	677.2
685.94	655
686.342	682.4
686.766	651.8
687.168	662
687.571	675
687.995	661
688.398	648.2
688.822	662.8
689.225	678.4
689.628	685.2
690.052	660
690.456	670.4
690.88	668
691.284	646.8
691.687	657.6
692.112	644.4
692.515	647.2
692.919	653.6
693.344	666.2
693.747	651.4
694.173	650.6
694.577	678.8
694.98	659.6
695.406	655.8
695.81	671.6
696.214	671.6
696.64	671.8
697.044	667.6
697.448	664.6
697.874	663.8
698.279	654.4
698.684	660.2
699.11	654.4
699.514	652
699.919	667.8
700.324	647.8
700.75	662.2
701.156	666.6
701.561	669
701.987	671.2
702.393	672.8
702.798	673.8
703.203	658.8
703.63	656
704.036	656.6
704.442	656.6
704.847	649.4
705.274	662
705.68	665
706.086	670.8
706.492	650
706.92	651.2
707.326	673.2
707.732	642.8
708.139	646.6
708.545	656.4
708.973	661.8
709.38	665.2
709.786	648.8
710.193	677.8
710.6	666.8
711.028	653.4
711.435	658.4
711.842	662.8
712.249	666
712.656	661.8
713.064	670.8
713.492	656
713.9	652.4
714.307	670.4
714.715	670.8
715.123	666.8
715.53	659
715.938	671.8
716.367	671.6
716.775	660
717.184	658.6
717.592	654.4
718	684
718.408	698.6
718.816	709.4
719.225	664.2
719.633	664.8
720.042	651
720.472	654
720.881	688.8
721.29	668.2
721.699	652.4
722.108	669
722.517	657.6
722.926	650.4
723.335	676
723.744	666.2
724.154	661
724.563	661.4
724.973	665.8
725.382	666
725.792	656.8
726.202	661
726.612	691
727.022	657
727.432	660.8
779.813	654.6
780.223	714.6
780.634	661.2
781.044	654.2
781.454	664.6
781.865	678
782.276	661
782.686	677.4
783.097	662.6
783.508	655.8
783.919	657.8
784.33	667.8
784.741	678.2
785.152	646.6
785.563	652
785.974	649
786.386	677.2
786.776	653.6
787.188	660.8
787.599	652.8
788.011	680
788.423	664.4
788.835	654.2
789.247	648.8
789.659	658.8
790.071	658.2
790.483	709.8
790.874	660.6
791.286	670.2
791.699	660.6
792.111	660.8
792.524	665.8
792.937	657
793.349	654
793.741	657.6
794.154	660
794.567	680.8
794.98	654.6
795.393	643.6
795.785	679.4
796.198	648.6
796.612	662.2
797.026	666
797.439	648.2
797.831	659.4
798.245	648.6
798.659	655.6
799.073	652.8
799.487	662.6
799.88	657
800.294	656.2
800.708	664.8
801.123	665
801.516	689
801.93	650
802.345	647.8
802.76	662.4
803.153	676.2
803.568	687.8
803.983	679.2
804.377	663.2
804.792	648.6
805.207	641.8
805.601	654.8
806.016	693.6
806.432	652.6
806.826	690.4
807.242	671.8
807.658	669.8
808.052	654.8
808.468	658.4
808.884	647
809.279	650.8
809.695	668
810.111	690.6
810.506	664.4
810.922	678
811.339	656.8
811.734	675.8
812.151	659.6
812.546	652.8
812.963	653.6
813.38	661.6
813.776	660.6
814.193	678.2
814.589	649
815.006	649.4
815.402	655.6
815.82	650
816.237	646.2
816.633	655.4
817.051	655.8
817.448	649
817.866	652.6
818.262	687.8
818.68	653.6
819.077	657
819.495	660
819.892	713.6
820.311	648.2
820.708	657.2
821.127	653.6
821.524	671.4
821.943	664.8
822.34	679.8
822.759	660.6
823.157	654
823.576	676.8
823.974	659.4
824.393	742.4
824.791	656.6
825.189	644.8
825.609	649.4
826.007	649.4
826.427	646.2
826.826	651.6
827.246	667.4
827.644	642.6
828.043	673.8
828.463	650
828.862	664.6
829.261	672.6
829.682	646.4
830.081	670.2
830.502	651.4
830.901	664.8
831.301	659.6
831.722	645.4
832.121	666.4
832.521	668.2
832.943	655.6
833.342	660
833.742	648.6
834.164	655.2
834.564	656.8
834.965	655.2
835.386	664.8
835.787	648.2
836.188	660.4
836.588	665.6
837.01	655.6
837.411	653.6
837.812	660.2
838.213	666.6
838.636	652.8
839.037	736.6
839.438	660
839.84	668.8
840.263	659.2
840.664	658.8
841.066	655.2
841.468	655.2
841.891	652.6
842.293	674
842.695	660.8
843.098	668.4
843.5	652.8
843.902	659.8
844.326	661.4
844.729	672.6
845.131	664.8
845.534	658.6
845.937	665.6
846.34	680.2
846.764	652.8
847.167	654.6
847.571	646.4
847.974	647.4
848.377	648.6
848.781	712.6
849.184	665.8
849.588	648
849.992	655.2
850.396	657
850.821	680.4
851.225	656.2
851.63	646
852.034	668.6
852.438	650
852.843	701.2
853.247	651.8
853.652	656.2
854.057	673.8
854.462	659.8
854.867	658.2
855.272	688.2
855.677	656.4
856.082	649.6
856.487	651.2
856.893	662
857.298	654.2
857.704	654.4
