#lambda/nm	C1
208.295	537.2
208.67	488.2
209.045	443.2
209.419	456.2
209.794	688.2
210.169	665.8
210.544	809.2
210.919	687
211.295	680
211.67	687.8
212.045	680
212.421	671.8
212.796	736.8
213.172	680.2
213.547	674.2
213.923	691
214.299	674.2
214.675	691.6
215.051	692
215.427	695.6
215.803	711.2
216.179	687.4
216.555	672.4
216.932	693.2
217.308	691.6
217.684	687
218.061	696.6
218.438	684
218.814	675.2
219.191	695.8
219.568	680.4
219.945	687.4
220.322	690.2
220.699	696.8
221.076	692.2
221.453	699
221.83	679.2
222.208	691.6
222.585	684.6
222.962	697.4
223.34	696.8
223.717	691.4
224.095	685
224.473	692.6
224.851	681.6
225.229	677
225.607	703.2
225.985	682.4
226.363	691.8
226.741	685.4
227.119	687
227.497	702.8
227.876	672.2
228.254	700
228.633	695.2
229.011	684.4
229.39	695.2
229.769	694.6
230.148	692.6
230.527	707.4
230.905	688
231.284	683.6
231.664	681.4
232.043	703.6
232.422	694.8
232.801	674
233.181	698.6
233.56	687.2
233.94	687.4
234.319	675.6
234.699	674.2
235.079	726.4
235.458	730
235.838	700.4
236.218	678.6
236.598	678
236.978	680
237.358	677.6
237.738	682
238.119	693.4
238.499	679.6
238.88	688.2
239.26	710.2
239.641	676.2
240.021	683
240.402	682
240.783	684.2
241.163	680.6
241.544	691.6
241.925	692.8
242.306	713.2
242.687	678.8
243.069	691
243.45	695
243.831	684.2
244.212	684
244.594	730.8
244.975	701.8
245.357	689.2
245.739	677.6
246.12	687.8
246.502	705.2
246.884	680.8
247.266	678.4
247.648	690.4
248.03	710.4
248.412	684.8
248.794	701.2
249.176	678.8
249.559	694.6
249.941	676.8
250.323	681.6
250.706	677.6
251.089	689.4
251.471	690.2
251.854	686.2
252.237	692.6
252.62	698.2
253.002	683.8
253.385	695.2
253.769	705
254.152	693.8
254.535	703.6
254.918	686
255.301	682.8
255.685	679.6
256.068	679.4
256.452	717.2
256.835	694.2
257.219	691.2
257.603	695
257.986	675.2
258.37	692.6
258.754	674.2
259.138	687.2
259.522	698.6
259.906	683
260.29	690.8
260.675	685
261.059	689.6
261.443	673.4
261.828	697
262.212	693.6
262.597	673.8
262.981	673.4
263.366	697
263.751	686
264.136	684
264.521	678.6
264.906	678.2
265.291	698.6
265.676	673.8
266.061	684.2
266.446	710.6
266.831	685.6
267.217	706.2
267.602	687.4
267.987	691
268.373	687.8
268.759	704.8
269.144	693.8
269.53	682.8
269.916	687.2
270.302	675.6
270.688	689.2
271.074	688.6
271.46	693.8
271.846	731.8
272.232	686.6
272.618	673.8
273.004	691.6
273.391	694.8
273.777	706.6
274.164	704.2
274.55	702
274.937	694.8
275.324	690
275.71	695
276.097	697.2
276.484	681.2
276.871	707.4
277.258	695.4
277.645	677.8
278.032	689.2
278.419	687.4
278.807	694
279.194	678
279.581	682.4
279.969	690
280.356	694.6
280.744	693.6
281.131	717.8
281.519	706.8
281.907	683.4
282.295	680
282.682	703.2
283.07	687.4
283.458	707.4
283.846	698
284.235	692
284.623	698.2
285.011	686.4
285.399	693.6
285.788	685.6
286.176	683.2
286.565	696.2
286.953	679.8
287.342	691.8
287.731	682
288.119	677.8
288.508	693.6
288.897	690.2
289.286	675
289.675	693.6
290.064	699.2
290.453	687.6
290.821	682.8
291.21	706.4
291.599	682.2
291.989	696.8
292.378	698.2
292.768	719.4
293.157	687.2
293.547	691.2
293.936	689.6
294.326	689
294.716	693.8
295.106	693
295.496	702.2
295.886	699.4
296.276	686.4
296.666	684.2
297.056	688.6
297.446	683.4
297.836	711.8
298.227	690.2
298.617	694.4
299.008	712.8
299.398	693
299.789	689
300.179	694.8
300.57	709.6
300.961	691.2
301.352	689.4
301.742	708.8
302.133	691.4
302.524	688.2
302.915	693.2
303.307	683
303.698	699.4
304.089	694.6
304.48	695.6
304.872	702.6
305.263	686
305.655	686.2
306.046	704.6
306.438	699
306.829	681
307.221	707.8
307.613	701
308.005	703.4
308.397	708
308.789	715.6
309.181	716
309.573	711.8
309.965	701.8
310.357	684.8
310.749	709.8
311.142	687
311.534	682.2
311.926	696.6
312.319	700
312.711	675.4
313.104	710.6
313.497	683.4
313.889	738.4
314.282	715.2
314.675	721
315.068	698.2
315.461	696.4
315.854	724.2
316.247	703.6
316.64	694.2
317.033	693.4
317.405	703
317.798	695.2
318.192	698
318.585	679.6
318.979	698.8
319.372	682.6
319.766	687
320.16	700.6
320.553	702.2
320.947	709.8
321.341	689.8
321.735	683.4
322.129	672.2
322.523	710.8
322.917	681
323.311	702
323.705	690.4
324.099	700.2
324.494	707
324.888	704.2
325.282	689.2
325.677	717
326.071	700.2
326.466	711.6
326.861	696.8
327.255	701.2
327.65	706.6
328.045	712.8
328.44	702.6
328.835	685.6
329.23	677.4
329.625	716
330.02	685.6
330.415	714.4
330.81	691.8
331.206	696.6
331.601	684.2
331.996	696.6
332.37	717.8
332.766	673.2
333.161	716.4
333.557	691.8
333.953	693.4
334.348	1137.8
334.744	690
335.14	683.8
335.536	678.6
335.932	700.4
336.328	694
336.724	703
337.12	690.4
337.516	694.6
337.913	693
338.309	703.4
338.705	686.2
339.102	703.8
339.498	678.4
339.895	710
340.291	688.6
340.688	707.2
341.085	680.4
341.481	683.8
341.878	692.6
342.275	707.4
342.672	684
343.069	687.6
343.466	677.4
343.842	700.8
344.239	683.2
344.636	691.4
345.033	684.6
345.431	685.6
345.828	690
346.225	677.4
346.623	740.8
347.02	694.4
347.418	705
347.816	707
348.213	679
348.611	707.2
349.009	686.4
349.407	703.6
349.805	670.8
350.203	672.6
350.601	702.6
350.999	689.2
351.397	747.2
351.795	691.6
352.193	696.2
352.57	697.4
352.969	703
353.367	677.2
353.766	682.8
354.164	683.8
354.563	700.8
354.961	689.2
355.36	680.2
355.759	680.2
356.158	673.4
356.557	680.6
356.956	674.6
357.355	672.2
357.754	690
358.153	684
358.552	715
358.951	690.6
359.35	696.8
359.75	682.8
360.149	672.2
360.527	679.2
360.926	674.4
361.326	687.8
361.726	691.2
362.125	674.8
362.525	693.2
362.925	684.6
363.325	686.8
363.724	685.6
364.124	683.8
364.524	664
364.924	682.4
365.324	698.6
365.725	671.2
366.125	692.8
366.525	689.2
366.904	674.8
367.304	671.4
367.705	706.2
368.105	697
368.506	678.8
368.906	689.4
369.307	685.2
369.708	691.4
370.108	674.4
370.509	690.6
370.91	676.8
371.311	687.2
371.712	691.4
372.113	682.4
372.514	669.8
372.894	684.4
373.295	678
373.696	690.4
374.097	688
374.499	709.4
374.9	692.2
375.301	677.2
375.703	676.2
376.105	674
376.506	679.4
376.908	683.2
377.309	689.2
377.711	675
378.113	679
378.493	685.8
378.895	669
379.297	693.8
379.699	666.2
380.102	689.8
380.504	685.4
380.906	674.6
381.308	719.8
381.71	678.4
382.113	693
382.515	685
382.918	686
383.299	682.4
383.701	694.4
384.104	682.2
384.507	662.2
384.909	680
385.312	665
385.715	671.4
386.118	689
386.521	665.6
386.924	702
387.327	678
387.709	660.2
388.112	665.6
388.515	676.6
388.918	681.2
389.322	681.2
389.725	679.8
390.129	709.6
390.532	689
390.936	679.8
391.339	681.4
391.743	691.4
392.125	676.4
392.529	692.2
392.933	699
393.337	683.2
393.74	680.2
394.144	680.4
394.548	678
394.953	683.4
395.357	693.8
395.761	684
396.144	686.8
396.548	683.6
396.952	685.6
397.357	683
397.761	680.6
398.166	680.8
398.57	681.2
398.975	673.6
399.379	675.6
399.763	739.4
400.168	685.4
400.572	690.6
400.977	679.2
401.382	709.8
401.787	691.2
402.192	708.2
402.597	698.6
403.002	680.2
403.386	703.4
403.791	708
404.197	681.4
404.602	681.2
405.007	680.6
405.413	681.4
405.818	682.4
406.224	681.4
406.608	678.2
407.014	668.4
407.42	707.6
407.825	672
408.231	697.4
408.637	687.8
409.043	707.4
409.449	668.8
409.834	679.6
410.24	686.2
410.646	698.4
411.052	688.6
411.458	686.4
411.865	693.8
412.271	695
412.677	682.6
413.062	685.2
413.469	668
413.875	711
414.282	692.8
414.689	680
415.095	691.6
415.502	675.4
415.888	689
416.294	660.2
416.701	732.6
417.108	680.6
417.515	686.6
417.923	676.2
418.33	698.4
418.715	684
419.123	691.4
419.53	688.8
419.937	686.4
420.345	708.2
420.752	682.4
421.16	689.4
421.546	694.4
421.953	691.6
422.361	674
422.769	676.4
423.177	679
423.585	716.2
423.992	697.4
424.379	693.8
424.787	690
425.195	714.2
425.603	683.6
426.011	689.8
426.419	700.6
426.806	687.6
427.214	688.4
427.623	695.6
428.031	711.2
428.44	697.6
428.848	699.2
429.235	705
429.644	697.4
430.053	684.6
430.461	703.4
430.87	720.4
431.279	704.6
431.666	679.4
432.075	688.2
432.484	698.4
432.893	678.6
433.302	713
433.711	751.2
434.099	694.4
434.508	687.6
434.918	675
435.327	691.6
435.737	689.8
436.125	690
436.534	693.2
436.944	682.4
437.353	692.6
437.763	706.8
438.173	674.8
438.561	705
438.971	670.4
439.381	689
439.791	688.8
440.201	661
440.589	692.8
440.999	693.4
441.409	687.4
441.819	670.8
442.23	697.8
442.619	699.8
443.029	684
443.439	685.8
443.85	698.8
444.26	708
444.649	700
445.06	684.6
445.471	683.8
445.881	683
446.292	712.6
446.682	711
447.092	663
447.503	743.4
447.914	685.4
448.325	686.2
448.715	686.8
449.126	673.4
449.537	690.8
449.948	688.4
450.338	689
450.75	699.4
451.161	693.6
451.572	693.8
451.984	686.4
452.374	668.8
452.786	683
453.197	699.6
453.609	698.4
453.999	669.8
454.411	676.4
454.823	694.4
455.235	675
455.647	679.6
456.037	683.6
456.449	671
456.862	686.2
457.274	687.4
457.665	672.4
458.077	681.8
458.489	725.2
458.902	689
459.293	685.8
459.705	683.8
460.118	679.2
460.53	677.8
460.921	686.4
461.334	677.2
461.747	687
462.16	702
462.551	702
462.964	699.8
463.377	674
463.79	683.8
464.182	696.4
464.595	681.6
465.008	691.4
465.421	691.4
465.813	687.2
466.226	691.2
466.64	675.4
467.053	735.4
467.445	698.2
467.859	696.8
468.272	691.4
468.686	700
469.078	685.8
469.492	674
469.906	689.4
470.298	698.6
470.712	680
471.126	745.4
471.54	675.8
471.933	674
472.347	687.4
472.761	676.8
473.175	675.6
473.568	681.4
473.982	669.4
474.397	688.6
474.79	676.2
475.204	696.2
475.619	686.2
476.033	682.2
476.426	688.4
476.841	678.6
477.256	715.8
477.649	677
478.064	667.4
478.479	671.6
478.872	669.6
479.287	664.2
479.702	668.2
480.118	670.6
480.511	680.6
480.927	667.2
481.342	671.2
481.736	683.4
482.151	676.2
482.566	690.2
482.96	682.8
483.376	696
483.792	669.4
484.186	679.6
484.602	676.4
485.017	678.8
485.412	678.4
485.827	691
486.243	674.2
486.638	703.4
487.054	684.8
487.47	702.2
487.865	675.8
488.281	676
488.697	677.4
489.092	678
489.508	677.6
489.925	690.8
490.32	667.2
490.736	695
491.153	679.6
491.548	687.8
491.964	695.2
492.381	665.8
492.776	680.2
493.193	674.8
493.61	688.2
494.006	687.2
494.422	693.8
494.84	673.6
495.235	695.2
495.652	682
496.069	682.4
496.465	673
496.883	682.6
497.3	706.2
497.696	671
498.113	687.2
498.509	655.8
498.927	664.2
499.344	669.8
499.741	669.2
500.158	687.2
500.576	691.4
500.973	679.4
501.39	667
501.787	658.8
502.205	679
502.623	666.6
503.02	666.8
503.438	670
503.856	673.8
504.253	677.8
504.671	682.4
505.068	669.6
505.486	675.6
505.905	697.6
506.302	679.4
506.72	692.8
507.118	675.2
507.536	681.6
507.955	676.2
508.352	691.6
508.771	685.8
509.169	681.4
509.587	663
510.006	679
510.404	668.6
510.823	669.2
511.221	671.2
511.64	668
512.038	688.2
512.457	680.6
512.877	673.4
513.275	678.4
513.694	665.8
514.092	671
514.512	673.4
514.91	672
515.33	679.2
515.749	674.4
516.148	685.8
516.568	683.4
516.966	671.4
517.386	674.4
517.785	675.8
518.205	666.8
518.603	667.6
519.024	668.6
519.444	685.8
519.843	685.8
520.263	688.6
520.662	674.6
521.082	675.2
521.481	681
521.902	675
522.301	680
522.722	677
523.121	664
523.542	671.2
523.963	678.6
524.362	676.4
524.783	683.8
525.183	672
525.604	683.6
526.003	666
526.425	661.4
526.824	678.8
527.246	679.8
527.646	696.6
528.067	679.4
528.467	669
528.888	680.8
529.289	673.4
529.71	670.6
530.11	670.6
530.532	667.6
530.932	661.8
531.354	658.4
531.755	707
532.176	681.6
532.577	667.2
532.999	673
533.4	673.2
533.822	696.6
534.223	672.4
534.645	664.8
535.046	668.8
535.468	673.4
535.869	678.6
536.292	661
536.693	717.6
537.115	678.2
537.516	668.2
537.939	665.4
538.34	689.2
538.742	681.4
539.165	674
539.566	683.2
539.989	664
540.391	667.6
540.814	667.8
541.216	675.8
541.639	672.2
542.041	684.4
542.464	670.8
542.866	668.2
543.268	659.2
543.691	669.8
544.093	681.2
544.517	691.4
544.919	653.8
545.343	693.8
545.745	662.4
546.147	683.6
546.571	672
546.974	655
547.398	668.6
547.8	690.4
548.224	670.4
548.627	664.4
549.03	676.2
549.454	667
549.857	659.2
550.281	666
550.684	663.8
551.087	689.8
551.512	686.2
551.915	677.6
552.34	671.6
552.743	675.2
553.146	679
553.571	669.8
553.975	695
554.399	667.8
554.803	731
555.207	669
555.632	656.2
556.036	685.8
556.461	654.6
556.865	672.4
557.268	666.8
557.694	664
558.098	677.2
558.502	674.4
558.927	654.8
559.332	662.2
559.736	675
560.162	679
560.566	672.6
560.992	684.4
561.396	664.2
561.801	666.6
562.227	667.2
562.631	660.2
563.036	675
563.462	679.2
563.867	670.4
564.272	654.2
564.698	672.6
565.103	661
565.508	689.6
565.935	674.6
566.34	666.2
566.745	681.8
567.172	665.2
567.577	685
567.982	680.8
568.409	675
568.815	654
569.22	674
569.626	685
570.053	652.2
570.459	677.6
570.865	680.2
571.292	681.8
571.698	672.4
572.104	662.4
572.531	662.2
572.937	677.8
573.343	669.8
573.75	668.4
574.177	668.6
574.583	676
574.99	666.8
575.396	679
575.824	662.6
576.231	662
576.637	669.4
577.065	689
577.472	665
577.879	671.8
578.286	684.2
578.714	670.2
579.121	663
579.528	665.8
579.935	674.2
580.364	666
580.771	645
581.178	655.2
581.585	660.6
582.014	664.6
582.421	654
582.829	659.2
583.236	673.6
583.644	649.8
584.073	658.4
584.481	661.6
584.889	656.8
585.296	676.4
585.726	666.6
586.134	653
586.542	657.8
586.95	693.6
587.358	660.4
587.787	670.2
588.196	658.2
588.604	661.8
589.012	664.2
589.421	646.6
589.851	666.4
590.259	671.6
590.668	662.2
591.076	711.2
591.485	656.6
591.894	669
592.324	680
592.733	686.8
593.142	651.8
593.551	661.2
593.96	714.4
594.369	656
594.8	657.8
595.209	673
595.618	650.4
596.028	657.2
596.437	651.8
596.847	671
597.256	662.8
597.687	678.6
598.097	658
598.507	651.8
598.917	671
599.327	667.2
599.736	671.4
600.146	679.4
600.556	668.2
600.988	688.2
601.398	656.4
601.808	677.4
602.219	660
602.629	668.6
603.039	671
603.45	696.8
603.86	672.6
604.271	682
604.703	672.4
605.114	673
605.525	676
605.935	669
606.346	692.8
606.757	673.6
607.168	674.6
607.579	658.8
607.99	681.6
608.402	667.2
608.813	674.6
609.224	669.6
609.636	656.2
610.047	659.6
610.48	666
610.892	671
611.303	673.8
611.715	664.8
612.127	665.2
612.539	666.4
612.95	669.6
613.362	644.8
613.774	653.4
614.186	658
614.599	653
615.011	675.8
615.423	664.6
615.835	648.4
616.248	653.8
616.66	672.2
617.073	653.2
617.485	664.2
617.898	668.8
618.311	670
618.723	669.8
619.136	708.6
619.549	680.8
619.962	684
620.375	665.8
620.788	665.6
621.201	659
621.614	672.6
622.028	670.6
622.441	663.2
622.854	687
623.268	660.4
623.681	670.6
624.095	666
624.509	674.4
624.922	668.8
625.336	644.4
625.728	670.6
626.142	675.8
626.556	681.4
626.97	670.8
627.384	666.6
627.799	661.2
628.213	682.8
628.627	662.6
629.041	669.8
629.456	664.2
629.87	659.6
630.285	674.4
630.699	675
631.093	665.2
631.507	675.6
631.922	666.4
632.337	683.8
632.752	656.4
633.167	664.8
633.582	664.4
633.997	668
634.412	650.6
634.806	661.6
635.221	642.8
635.637	681.2
636.052	645.6
636.468	668.2
636.883	688.8
637.299	662.4
637.715	648.6
638.109	665.6
638.525	645.4
638.941	676.2
639.357	665.8
639.773	674.8
640.189	660
640.584	669.4
641	663.8
641.416	653.8
641.832	661
642.249	674.2
642.665	672.2
643.06	672.8
643.477	679.4
643.894	645.2
644.31	670.4
644.727	670.6
645.123	667.8
645.54	656
645.957	667.8
646.374	675.6
646.77	656.8
647.187	702.4
647.604	663.6
648.021	639.6
648.439	661.4
648.835	668.2
649.252	667.6
649.67	656
650.088	670.4
650.484	664.6
650.902	663.2
651.32	665.2
651.738	653.6
652.134	673
652.552	685.6
652.971	676.8
653.389	659.2
653.786	677.4
654.204	690
654.622	660.4
655.019	663.2
655.438	664
655.857	668
656.275	670
656.673	651
657.091	744.8
657.51	651.8
657.908	671.6
658.327	680.6
658.746	657.6
659.144	660
659.563	689.8
659.982	664
660.38	650
660.8	659.6
661.219	676.4
661.617	663.2
662.037	663.6
662.457	682
662.855	646.8
663.275	697.8
663.695	659.6
664.094	653
664.514	657.8
664.934	649
665.333	668.6
665.753	650.8
666.152	649
666.572	654
666.993	681
667.392	663.2
667.812	662.2
668.212	662.6
668.632	674.4
669.053	661.2
669.453	663.8
669.874	668.8
670.273	665.8
670.694	650.6
671.116	682.8
671.515	675
671.937	661.2
672.337	658
672.758	661
673.158	665.8
673.58	649
673.98	668
674.402	677.8
674.824	664.2
675.224	653.8
675.646	656.2
676.047	658.6
676.469	668
676.869	680.4
677.292	658.6
677.693	659
678.115	658.2
678.516	663.8
678.939	662
679.34	650.4
679.762	677.2
680.164	673
680.586	655.8
680.988	666.2
681.411	688.8
681.812	652.2
682.236	655
682.637	653.4
683.061	652.2
683.462	672
683.864	658.2
684.288	666.6
684.69	647.2
685.114	675.4
685.516	668.4
685.94	649.8
686.342	673.2
686.766	652.4
687.168	649
687.571	682
687.995	661.4
688.398	643.6
688.822	650
689.225	678
689.628	672.8
690.052	662
690.456	671.8
690.88	664.2
691.284	657.8
691.687	679
692.112	652.2
692.515	658.8
692.919	661.4
693.344	662
693.747	665.6
694.173	647
694.577	678.6
694.98	651
695.406	666.4
695.81	660.2
696.214	672.4
696.64	661
697.044	667.2
697.448	673.2
697.874	658.2
698.279	661.6
698.684	649.4
699.11	652
699.514	660.8
699.919	664.4
700.324	647.2
700.75	676.4
701.156	670.2
701.561	667.8
701.987	666.2
702.393	682
702.798	671.8
703.203	666.6
703.63	661.4
704.036	662.4
704.442	669.4
704.847	661.8
705.274	653.6
705.68	674.4
706.086	672
706.492	656
706.92	671.4
707.326	673.8
707.732	660.8
708.139	653.8
708.545	649.6
708.973	653.4
709.38	666.6
709.786	651.2
710.193	669.8
710.6	659
711.028	657.2
711.435	658.2
711.842	664.4
712.249	654.8
712.656	661.2
713.064	677.4
713.492	654.8
713.9	657
714.307	666.8
714.715	657.4
715.123	664
715.53	674.8
715.938	662
716.367	658
716.775	649
717.184	654.2
717.592	657.6
718	674.4
718.408	701.6
718.816	711.6
719.225	659.4
719.633	665.4
720.042	651
720.472	654
720.881	685.6
721.29	669.8
721.699	653
722.108	661.8
722.517	664.2
722.926	663
723.335	668.2
723.744	666.6
724.154	651.6
724.563	666.2
724.973	666.6
725.382	660.6
725.792	656
726.202	654.4
726.612	676.6
727.022	655.4
727.432	652.8
779.813	660.6
780.223	708.6
780.634	659.2
781.044	649
781.454	655.2
781.865	682.6
782.276	648.2
782.686	675.8
783.097	660
783.508	650.6
783.919	664
784.33	676.6
784.741	678.4
785.152	649.6
785.563	644
785.974	648.2
786.386	668.4
786.776	649
787.188	660.2
787.599	644.4
788.011	664.6
788.423	667.8
788.835	652.8
789.247	646.4
789.659	650
790.071	660.2
790.483	701.8
790.874	661.2
791.286	668.6
791.699	654.6
792.111	665.8
792.524	665.8
792.937	655.2
793.349	650.6
793.741	645.4
794.154	656.6
794.567	680.4
794.98	655.4
795.393	650.8
795.785	678.2
796.198	652.4
796.612	661
797.026	650
797.439	635.8
797.831	652.6
798.245	649.2
798.659	655.2
799.073	661.4
799.487	656.4
799.88	657.6
800.294	663.8
800.708	670
801.123	650.6
801.516	679.2
801.93	649.2
802.345	642.4
802.76	659.8
803.153	674.2
803.568	673.4
803.983	660
804.377	655
804.792	641.8
805.207	644
805.601	655
806.016	690.8
806.432	648.2
806.826	696.2
807.242	671.8
807.658	661.6
808.052	654.2
808.468	661.6
808.884	655.6
809.279	654.2
809.695	673.2
810.111	685
810.506	662.4
810.922	689
811.339	652.2
811.734	671
812.151	654
812.546	654
812.963	656
813.38	660.8
813.776	660.2
814.193	693.8
814.589	645
815.006	647
815.402	651
815.82	655.6
816.237	658.6
816.633	664.2
817.051	648.2
817.448	657
817.866	642.6
818.262	686.8
818.68	654.4
819.077	651
819.495	652.4
819.892	698.2
820.311	642.6
820.708	657.8
821.127	650.6
821.524	668.6
821.943	659
822.34	679.2
822.759	653.4
823.157	659.8
823.576	674.6
823.974	673.2
824.393	723.6
824.791	662.2
825.189	642.2
825.609	651.2
826.007	656
826.427	648.8
826.826	658
827.246	662.4
827.644	636
828.043	664.8
828.463	654.6
828.862	666
829.261	662.8
829.682	644.8
830.081	664.4
830.502	659.4
830.901	663.6
831.301	659.2
831.722	650.2
832.121	655.2
832.521	655.4
832.943	662.8
833.342	654.2
833.742	650
834.164	650.8
834.564	645.6
834.965	659.8
835.386	659
835.787	655.8
836.188	653.8
836.588	661.2
837.01	649.2
837.411	648.4
837.812	664.6
838.213	661.2
838.636	649.8
839.037	731.8
839.438	668.2
839.84	650.8
840.263	664.2
840.664	655.4
841.066	649.4
841.468	648.6
841.891	643.8
842.293	664.2
842.695	658.2
843.098	667.4
843.5	651.4
843.902	663.4
844.326	661.4
844.729	657.6
845.131	659.8
845.534	660.4
845.937	668.4
846.34	677
846.764	651
847.167	656.6
847.571	644.6
847.974	648.6
848.377	656.2
848.781	702.8
849.184	674
849.588	647.8
849.992	651.4
850.396	662.6
850.821	678.8
851.225	664.4
851.63	648.6
852.034	676.2
852.438	648.6
852.843	793
853.247	655.8
853.652	654.8
854.057	678.2
854.462	650.4
854.867	659
855.272	686
855.677	667.8
856.082	646.8
856.487	646
856.893	659.8
857.298	651.6
857.704	657
