#lambda/nm	C1
208.295	531
208.67	480.6
209.045	444.4
209.419	448.4
209.794	680.8
210.169	663.8
210.544	802.6
210.919	693.6
211.295	677.6
211.67	681.6
212.045	680.4
212.421	681.4
212.796	727.2
213.172	680.6
213.547	686.8
213.923	688.4
214.299	679.6
214.675	698.2
215.051	686.8
215.427	687
215.803	709.4
216.179	690.2
216.555	676.6
216.932	696
217.308	684
217.684	682.4
218.061	690.4
218.438	687.8
218.814	681.4
219.191	693.4
219.568	676
219.945	677
220.322	693
220.699	689.2
221.076	688.6
221.453	693.4
221.83	680.2
222.208	686.8
222.585	686.2
222.962	691.6
223.34	686.4
223.717	684
224.095	688.2
224.473	684.6
224.851	684.4
225.229	680.2
225.607	701.6
225.985	673.8
226.363	691.8
226.741	687.6
227.119	677.6
227.497	707
227.876	679.2
228.254	691.2
228.633	686.6
229.011	684.6
229.39	686.8
229.769	695
230.148	695.4
230.527	711
230.905	684.6
231.284	689.6
231.664	679.4
232.043	704
232.422	696.2
232.801	680.6
233.181	691.6
233.56	681
233.94	693.8
234.319	671.6
234.699	680.6
235.079	740.8
235.458	738.8
235.838	709.8
236.218	679.8
236.598	676
236.978	682.4
237.358	676.2
237.738	680.4
238.119	687.6
238.499	680
238.88	680.4
239.26	704.6
239.641	679.8
240.021	679.4
240.402	684.6
240.783	688.2
241.163	675.6
241.544	682.6
241.925	680.6
242.306	704.8
242.687	681.8
243.069	694.8
243.45	698
243.831	680.2
244.212	679.2
244.594	729.2
244.975	694.8
245.357	690.6
245.739	680.8
246.12	692.8
246.502	703.8
246.884	688.4
247.266	690
247.648	688.6
248.03	713
248.412	693.8
248.794	698.4
249.176	685.4
249.559	693
249.941	686.4
250.323	679.2
250.706	674.2
251.089	693.6
251.471	694.6
251.854	693.4
252.237	695.6
252.62	696.2
253.002	687.2
253.385	683.2
253.769	700.2
254.152	692.4
254.535	693.4
254.918	679.8
255.301	672.8
255.685	687.8
256.068	687.6
256.452	709.6
256.835	703.4
257.219	694.2
257.603	706.6
257.986	677.8
258.37	699.2
258.754	675.6
259.138	692.6
259.522	701.6
259.906	685.4
260.29	689
260.675	688
261.059	701.6
261.443	679.4
261.828	702.2
262.212	691.8
262.597	679.2
262.981	677.6
263.366	697.4
263.751	687.8
264.136	678.4
264.521	684.6
264.906	675.6
265.291	694.4
265.676	686.4
266.061	700.2
266.446	705.8
266.831	690.4
267.217	718.8
267.602	695.2
267.987	691.6
268.373	682.4
268.759	695
269.144	694.4
269.53	688.8
269.916	677.4
270.302	684.2
270.688	696.6
271.074	691.4
271.46	709.2
271.846	729.6
272.232	687.2
272.618	682.4
273.004	684
273.391	698.2
273.777	704.6
274.164	686.2
274.55	708
274.937	690.4
275.324	687.4
275.71	703.4
276.097	693
276.484	682
276.871	689.6
277.258	699
277.645	675.2
278.032	679.6
278.419	677.6
278.807	687
279.194	680.8
279.581	681
279.969	686.8
280.356	692.4
280.744	686.6
281.131	717.2
281.519	699
281.907	683.6
282.295	684.4
282.682	707.6
283.07	690.4
283.458	693.6
283.846	698.6
284.235	697.4
284.623	702
285.011	685.4
285.399	685.8
285.788	679.8
286.176	671.2
286.565	707.2
286.953	691
287.342	679.2
287.731	681.2
288.119	681.6
288.508	689.2
288.897	689.8
289.286	676
289.675	695
290.064	697.2
290.453	685.6
290.821	684.4
291.21	703.6
291.599	684.6
291.989	684.6
292.378	696.4
292.768	705.6
293.157	681.8
293.547	708.4
293.936	686.8
294.326	685.2
294.716	691.4
295.106	682.8
295.496	691.2
295.886	696
296.276	693.8
296.666	677.8
297.056	684
297.446	675
297.836	711.8
298.227	689.6
298.617	685.8
299.008	703.4
299.398	688.2
299.789	685.8
300.179	700.6
300.57	709
300.961	685.8
301.352	684
301.742	702.2
302.133	690.4
302.524	692.2
302.915	692.4
303.307	679.6
303.698	701.8
304.089	698.8
304.48	688.6
304.872	695.8
305.263	685.2
305.655	686.6
306.046	698.6
306.438	692
306.829	682.4
307.221	707
307.613	687.2
308.005	706.2
308.397	709.6
308.789	714.2
309.181	721.6
309.573	708.2
309.965	708.2
310.357	692.2
310.749	703
311.142	677
311.534	683.6
311.926	699.2
312.319	689.4
312.711	675.4
313.104	696
313.497	687
313.889	721.8
314.282	710.2
314.675	716.4
315.068	692.6
315.461	697.2
315.854	719.8
316.247	690.2
316.64	690
317.033	686
317.405	701.6
317.798	687.2
318.192	689.2
318.585	675.4
318.979	689
319.372	690
319.766	689
320.16	702.2
320.553	705.2
320.947	712
321.341	687.4
321.735	689.6
322.129	684.8
322.523	733.8
322.917	681.4
323.311	715
323.705	700.6
324.099	692.6
324.494	703
324.888	706.4
325.282	687.8
325.677	706.2
326.071	703.6
326.466	696.2
326.861	697.6
327.255	700.4
327.65	704.2
328.045	711
328.44	689.6
328.835	692
329.23	676.8
329.625	724.4
330.02	691.6
330.415	724.2
330.81	695.2
331.206	694.4
331.601	681
331.996	705
332.37	717.8
332.766	682.4
333.161	722.6
333.557	685
333.953	695
334.348	1034
334.744	695.4
335.14	692.2
335.536	693
335.932	712.6
336.328	693
336.724	703.8
337.12	694.2
337.516	698.2
337.913	696.4
338.309	706.6
338.705	690.2
339.102	703.4
339.498	692.8
339.895	708.6
340.291	683.8
340.688	703.8
341.085	690.2
341.481	691.4
341.878	697
342.275	713
342.672	683
343.069	688.2
343.466	676.4
343.842	706.8
344.239	688.8
344.636	687
345.033	679.4
345.431	688.8
345.828	694.4
346.225	679.4
346.623	724.6
347.02	693.8
347.418	704.4
347.816	699.6
348.213	677.8
348.611	701.2
349.009	687.4
349.407	711
349.805	675
350.203	674.2
350.601	695.8
350.999	685.6
351.397	754.2
351.795	687.2
352.193	703.6
352.57	693.4
352.969	698.8
353.367	682.8
353.766	680.6
354.164	690.8
354.563	701.8
354.961	682.4
355.36	680.6
355.759	680.8
356.158	679.4
356.557	689.2
356.956	671.2
357.355	668.8
357.754	707.2
358.153	690.2
358.552	710.8
358.951	682
359.35	692
359.75	687.8
360.149	671.6
360.527	665
360.926	665.4
361.326	685.2
361.726	683
362.125	662.4
362.525	695
362.925	676.2
363.325	688.8
363.724	686.8
364.124	674.6
364.524	684.8
364.924	685
365.324	694
365.725	672.6
366.125	691.6
366.525	689
366.904	678.6
367.304	662
367.705	693.4
368.105	700
368.506	684.6
368.906	678.2
369.307	681
369.708	693.2
370.108	670
370.509	692.4
370.91	683.4
371.311	675.8
371.712	681.2
372.113	680.2
372.514	674.4
372.894	680.2
373.295	679.6
373.696	689
374.097	700.6
374.499	723.4
374.9	682.6
375.301	680.2
375.703	690.6
376.105	672.4
376.506	687
376.908	690
377.309	687.4
377.711	683.2
378.113	672.4
378.493	674.2
378.895	670.2
379.297	690
379.699	664.2
380.102	686.2
380.504	689.8
380.906	678.6
381.308	702.8
381.71	682
382.113	692
382.515	683
382.918	679.6
383.299	680.4
383.701	688.6
384.104	682
384.507	660
384.909	674.2
385.312	669
385.715	666.4
386.118	675.2
386.521	668.8
386.924	696.8
387.327	667
387.709	656.4
388.112	657.2
388.515	678.4
388.918	681.8
389.322	692.8
389.725	684.6
390.129	710.2
390.532	692
390.936	679.4
391.339	671.6
391.743	685.8
392.125	674
392.529	689.8
392.933	698.2
393.337	689.2
393.74	677
394.144	687
394.548	678.2
394.953	679.6
395.357	693.6
395.761	678.2
396.144	683.2
396.548	673.4
396.952	682.8
397.357	686.4
397.761	681.6
398.166	684
398.57	679.4
398.975	671
399.379	686.8
399.763	735.4
400.168	688.6
400.572	679.6
400.977	668.4
401.382	698
401.787	687.4
402.192	700.2
402.597	697.4
403.002	672
403.386	699.4
403.791	703.8
404.197	681
404.602	676.2
405.007	687.8
405.413	678.4
405.818	678.8
406.224	670.2
406.608	679.4
407.014	667.2
407.42	700.2
407.825	679
408.231	683.2
408.637	691.4
409.043	700.8
409.449	674.2
409.834	678.8
410.24	690.8
410.646	697.6
411.052	689
411.458	682.6
411.865	692.2
412.271	691.2
412.677	680.6
413.062	694
413.469	667.8
413.875	714.6
414.282	702
414.689	688.4
415.095	688.8
415.502	676
415.888	682.6
416.294	657.8
416.701	726.2
417.108	674.6
417.515	690.8
417.923	673.6
418.33	703.6
418.715	678.4
419.123	681.6
419.53	676.4
419.937	681.8
420.345	694.2
420.752	671.6
421.16	704.4
421.546	683
421.953	694
422.361	673
422.769	677
423.177	664.6
423.585	718.4
423.992	712.8
424.379	693
424.787	697
425.195	699.8
425.603	687.6
426.011	709.6
426.419	695.6
426.806	692.4
427.214	685.8
427.623	701.2
428.031	706.2
428.44	698.4
428.848	704.8
429.235	709.6
429.644	684.8
430.053	687.8
430.461	697.6
430.87	717.2
431.279	695.6
431.666	676.8
432.075	683.6
432.484	682.8
432.893	685.6
433.302	715.8
433.711	740.4
434.099	692.8
434.508	680.6
434.918	679
435.327	694
435.737	692.6
436.125	679
436.534	688.8
436.944	687.2
437.353	693
437.763	710.2
438.173	674.4
438.561	704.4
438.971	666.4
439.381	683.8
439.791	688.2
440.201	668.2
440.589	691.8
440.999	694.8
441.409	687.6
441.819	671.2
442.23	711.6
442.619	691.2
443.029	684.2
443.439	690
443.85	697
444.26	695.6
444.649	699
445.06	685.2
445.471	684.6
445.881	689.4
446.292	700.6
446.682	713.8
447.092	670.2
447.503	738
447.914	685.4
448.325	689
448.715	689.2
449.126	685.2
449.537	689
449.948	685.4
450.338	685.4
450.75	687.4
451.161	697.8
451.572	692.4
451.984	681.6
452.374	662
452.786	680.4
453.197	690.8
453.609	692.8
453.999	670
454.411	683.4
454.823	702.8
455.235	689
455.647	686.8
456.037	687
456.449	666.4
456.862	690
457.274	692.2
457.665	670.2
458.077	692.6
458.489	720.6
458.902	687
459.293	679.6
459.705	685.2
460.118	681.8
460.53	691.8
460.921	678.4
461.334	684.8
461.747	684.6
462.16	700.4
462.551	694.8
462.964	685
463.377	673.2
463.79	676
464.182	686.8
464.595	672
465.008	683.8
465.421	697.8
465.813	691
466.226	700.6
466.64	677
467.053	735.2
467.445	687.4
467.859	698.6
468.272	685.8
468.686	693.6
469.078	679.2
469.492	672.8
469.906	682.8
470.298	687.8
470.712	676.4
471.126	749.4
471.54	665.4
471.933	673.6
472.347	672.4
472.761	681.4
473.175	675.8
473.568	678.2
473.982	673.2
474.397	687
474.79	690.6
475.204	695.6
475.619	679.2
476.033	682.8
476.426	676.4
476.841	673
477.256	709.4
477.649	667.2
478.064	668.4
478.479	672.8
478.872	677.8
479.287	661.8
479.702	675.6
480.118	675.4
480.511	674.8
480.927	683
481.342	680.4
481.736	675
482.151	669.4
482.566	688
482.96	674.2
483.376	685.8
483.792	676.2
484.186	678.4
484.602	670.6
485.017	679.6
485.412	676
485.827	689
486.243	672.6
486.638	706
487.054	693
487.47	692.6
487.865	673.6
488.281	678.4
488.697	672.2
489.092	675.2
489.508	676
489.925	693.2
490.32	674.2
490.736	690.2
491.153	676.8
491.548	676.6
491.964	690.2
492.381	666.2
492.776	679
493.193	672.8
493.61	692.2
494.006	688.6
494.422	688.2
494.84	673.4
495.235	686.4
495.652	676.2
496.069	677.2
496.465	665.4
496.883	665.2
497.3	709.2
497.696	678.8
498.113	675.8
498.509	676.2
498.927	666.6
499.344	669.2
499.741	666
500.158	682
500.576	679.8
500.973	683.2
501.39	664.6
501.787	662.2
502.205	680.4
502.623	672.2
503.02	669.2
503.438	670.2
503.856	667.2
504.253	682.8
504.671	675.2
505.068	672.8
505.486	662.4
505.905	702.2
506.302	669.6
506.72	688.8
507.118	668.8
507.536	677.6
507.955	672.2
508.352	679
508.771	689.4
509.169	684.2
509.587	667.2
510.006	677.2
510.404	669.2
510.823	669.8
511.221	673.2
511.64	677.6
512.038	690.8
512.457	676.2
512.877	678
513.275	669
513.694	673.4
514.092	670.6
514.512	677
514.91	674.4
515.33	675.4
515.749	679.6
516.148	675
516.568	671.6
516.966	678
517.386	665
517.785	666.4
518.205	667
518.603	666.2
519.024	664
519.444	674
519.843	672.4
520.263	677
520.662	664
521.082	657.6
521.481	681.2
521.902	671.6
522.301	667.2
522.722	669.4
523.121	670.4
523.542	658
523.963	671.4
524.362	670.2
524.783	664.2
525.183	659.4
525.604	675
526.003	665.8
526.425	658.4
526.824	668.4
527.246	683.4
527.646	680.8
528.067	679.2
528.467	674.6
528.888	670.8
529.289	669.6
529.71	665.4
530.11	665.2
530.532	666
530.932	665
531.354	651.2
531.755	712.6
532.176	667.8
532.577	669.6
532.999	672.4
533.4	663.8
533.822	685.6
534.223	667.8
534.645	665.6
535.046	659.2
535.468	663.8
535.869	688
536.292	657.4
536.693	712.2
537.115	671.6
537.516	661.2
537.939	657.6
538.34	693.8
538.742	687.8
539.165	672.2
539.566	668.4
539.989	656.4
540.391	670
540.814	676.4
541.216	670.4
541.639	668.6
542.041	674.8
542.464	661
542.866	663.6
543.268	665.2
543.691	675.8
544.093	676.4
544.517	694.6
544.919	652
545.343	698.4
545.745	656.2
546.147	679.2
546.571	674.6
546.974	655.8
547.398	673.6
547.8	682.8
548.224	678
548.627	662.2
549.03	675.8
549.454	659.6
549.857	652.8
550.281	662.2
550.684	652.6
551.087	679.6
551.512	671.2
551.915	677.4
552.34	673
552.743	664.8
553.146	674.6
553.571	665.8
553.975	685.8
554.399	673.6
554.803	722.2
555.207	668.8
555.632	670
556.036	673.8
556.461	668
556.865	668.6
557.268	665.8
557.694	667.6
558.098	671.6
558.502	678
558.927	662
559.332	670.8
559.736	667
560.162	670.6
560.566	665.4
560.992	672.6
561.396	672.2
561.801	657.8
562.227	671.6
562.631	663.4
563.036	670.6
563.462	678.2
563.867	670.4
564.272	651.6
564.698	674
565.103	653.8
565.508	691.6
565.935	659.8
566.34	665
566.745	683.6
567.172	658.4
567.577	684.6
567.982	683.8
568.409	672.2
568.815	659.4
569.22	668.6
569.626	672.6
570.053	658.4
570.459	668
570.865	675.2
571.292	674.6
571.698	676.8
572.104	659.2
572.531	653.8
572.937	682
573.343	669.6
573.75	666.6
574.177	670.8
574.583	676.2
574.99	660.4
575.396	675.4
575.824	661.4
576.231	667.2
576.637	655.6
577.065	688
577.472	660
577.879	658.6
578.286	695.4
578.714	652.6
579.121	667.6
579.528	673.8
579.935	671.6
580.364	663.8
580.771	652.4
581.178	666.4
581.585	674.8
582.014	670.4
582.421	660.4
582.829	665.4
583.236	677.2
583.644	669.6
584.073	662.4
584.481	663.2
584.889	656
585.296	675.8
585.726	668.6
586.134	658.2
586.542	659.4
586.95	688.2
587.358	653.8
587.787	667.2
588.196	649.6
588.604	659.6
589.012	664.8
589.421	652.4
589.851	659
590.259	666.6
590.668	658
591.076	703
591.485	658.6
591.894	665
592.324	680.8
592.733	677.2
593.142	649
593.551	665.6
593.96	667.6
594.369	644.2
594.8	655.2
595.209	660.4
595.618	644
596.028	651.2
596.437	653.4
596.847	671.2
597.256	657.2
597.687	666.4
598.097	656.6
598.507	653.2
598.917	663.2
599.327	673.6
599.736	667
600.146	671.8
600.556	670.2
600.988	679.2
601.398	661.6
601.808	680
602.219	648.2
602.629	666.6
603.039	656
603.45	697
603.86	674.2
604.271	685.6
604.703	676
605.114	659.4
605.525	666.4
605.935	671
606.346	693
606.757	673.6
607.168	666.4
607.579	658.6
607.99	678.4
608.402	669.4
608.813	671.4
609.224	658.2
609.636	657.2
610.047	658.4
610.48	666
610.892	677.6
611.303	672.8
611.715	672.2
612.127	655.6
612.539	654.6
612.95	662
613.362	648.8
613.774	649.6
614.186	656.2
614.599	661
615.011	674
615.423	671
615.835	663.6
616.248	655.8
616.66	668
617.073	658.6
617.485	660
617.898	671.6
618.311	666.2
618.723	659.4
619.136	692
619.549	681.2
619.962	690.4
620.375	663.2
620.788	666.2
621.201	661.6
621.614	679.4
622.028	664.2
622.441	665
622.854	678.8
623.268	654.8
623.681	666.2
624.095	653.2
624.509	665
624.922	660.2
625.336	643.6
625.728	663.2
626.142	676
626.556	679.6
626.97	668.8
627.384	650
627.799	653.4
628.213	664.6
628.627	658
629.041	651.4
629.456	658.2
629.87	650.4
630.285	670.4
630.699	666.6
631.093	660.2
631.507	669.8
631.922	670.8
632.337	674.4
632.752	657
633.167	660
633.582	657
633.997	662.6
634.412	658.6
634.806	651
635.221	648
635.637	668
636.052	652.4
636.468	665.2
636.883	683.8
637.299	652.8
637.715	641.2
638.109	659.6
638.525	640.2
638.941	682.8
639.357	672.4
639.773	674.6
640.189	650.6
640.584	656.8
641	663
641.416	650.4
641.832	662
642.249	659.2
642.665	669
643.06	664.2
643.477	678
643.894	644.8
644.31	664
644.727	655.8
645.123	662.8
645.54	657.2
645.957	670.8
646.374	674.4
646.77	655.6
647.187	686
647.604	663.2
648.021	653.6
648.439	661.2
648.835	670.6
649.252	665.4
649.67	670.4
650.088	666.6
650.484	668.6
650.902	662.6
651.32	668.2
651.738	661.6
652.134	670.6
652.552	685.6
652.971	667.6
653.389	662.8
653.786	678.6
654.204	679.2
654.622	655.2
655.019	654.6
655.438	666.8
655.857	665.4
656.275	664.2
656.673	657
657.091	756.8
657.51	659.8
657.908	671.2
658.327	680
658.746	653.2
659.144	655.4
659.563	677
659.982	666.2
660.38	659.8
660.8	663
661.219	679.8
661.617	665.4
662.037	659
662.457	674.2
662.855	651.8
663.275	701.4
663.695	670
664.094	655.6
664.514	668.6
664.934	651.4
665.333	671
665.753	652.2
666.152	659.8
666.572	655.4
666.993	676
667.392	654.6
667.812	671.4
668.212	661.2
668.632	677.6
669.053	655.2
669.453	666.6
669.874	658.4
670.273	654.2
670.694	648.4
671.116	677.8
671.515	665.2
671.937	668.2
672.337	661.2
672.758	662
673.158	665.6
673.58	651
673.98	662
674.402	672.8
674.824	659.2
675.224	662.4
675.646	649.6
676.047	652.4
676.469	657.2
676.869	674
677.292	666
677.693	655.8
678.115	655.2
678.516	669.2
678.939	667.4
679.34	659.2
679.762	677.6
680.164	667.2
680.586	656.2
680.988	667.8
681.411	693.8
681.812	651.4
682.236	651
682.637	658.4
683.061	649.4
683.462	662.6
683.864	665
684.288	664
684.69	649.8
685.114	666.6
685.516	666.8
685.94	649.2
686.342	669.8
686.766	640.8
687.168	660.4
687.571	684.6
687.995	660.2
688.398	651.4
688.822	650
689.225	672.8
689.628	680.2
690.052	671.8
690.456	672
690.88	663.6
691.284	644.4
691.687	664.2
692.112	655.6
692.515	656.8
692.919	664.4
693.344	668.6
693.747	651
694.173	654
694.577	674.2
694.98	660.8
695.406	655
695.81	666.6
696.214	664.8
696.64	665.6
697.044	670.4
697.448	677
697.874	660.4
698.279	667.6
698.684	650.4
699.11	651.2
699.514	660.4
699.919	660.6
700.324	649.6
700.75	665
701.156	666.8
701.561	683.6
701.987	666.4
702.393	674
702.798	669.8
703.203	654.4
703.63	662
704.036	657.4
704.442	665.4
704.847	655.6
705.274	662.6
705.68	665.4
706.086	658
706.492	653.4
706.92	656.4
707.326	675.8
707.732	661.2
708.139	658
708.545	639.8
708.973	654.6
709.38	663.4
709.786	654.4
710.193	675
710.6	672.2
711.028	660.6
711.435	663.2
711.842	667.4
712.249	654.4
712.656	661.4
713.064	674.2
713.492	659.6
713.9	659.2
714.307	662.4
714.715	665.2
715.123	669.2
715.53	659
715.938	671.4
716.367	665
716.775	641.8
717.184	651.8
717.592	654.2
718	674.6
718.408	694.2
718.816	711.6
719.225	662
719.633	665.4
720.042	659.8
720.472	662.8
720.881	683.8
721.29	667
721.699	655.6
722.108	660
722.517	668.4
722.926	658.2
723.335	667.8
723.744	662.8
724.154	656.8
724.563	662.4
724.973	660.6
725.382	668.2
725.792	658.2
726.202	655.8
726.612	684.8
727.022	663.4
727.432	646.2
779.813	658
780.223	708.8
780.634	650.2
781.044	646.4
781.454	649.8
781.865	673.6
782.276	640.2
782.686	666.6
783.097	651.6
783.508	652.6
783.919	656.8
784.33	670.4
784.741	665.8
785.152	648.6
785.563	639.2
785.974	642.8
786.386	675.8
786.776	648.8
787.188	660.6
787.599	643.8
788.011	656.2
788.423	669.4
788.835	652.8
789.247	650.4
789.659	643.6
790.071	654.4
790.483	701.8
790.874	645.8
791.286	674
791.699	649.2
792.111	666.2
792.524	656.8
792.937	661.2
793.349	650.4
793.741	651.2
794.154	646.2
794.567	681.2
794.98	656.2
795.393	647.6
795.785	668
796.198	650.6
796.612	666.4
797.026	655.4
797.439	639.6
797.831	656.4
798.245	652.8
798.659	645.6
799.073	655.2
799.487	646.8
799.88	663
800.294	658.8
800.708	660.4
801.123	657.8
801.516	676.2
801.93	645.4
802.345	635.6
802.76	659.2
803.153	665.6
803.568	672.6
803.983	668.8
804.377	667.2
804.792	641.6
805.207	639.6
805.601	665.4
806.016	691.6
806.432	655.6
806.826	699
807.242	689.2
807.658	657
808.052	651.6
808.468	660.8
808.884	654.4
809.279	654.2
809.695	670.6
810.111	675.4
810.506	654.6
810.922	678.2
811.339	653.6
811.734	656.6
812.151	661.4
812.546	652.8
812.963	649.2
813.38	664.2
813.776	652.4
814.193	679.6
814.589	653.2
815.006	658
815.402	650
815.82	651.6
816.237	651.2
816.633	665.6
817.051	653.6
817.448	658.2
817.866	645.6
818.262	675.8
818.68	658.4
819.077	647.8
819.495	655.6
819.892	699.6
820.311	651.6
820.708	650.6
821.127	648.6
821.524	672.2
821.943	660.2
822.34	683.8
822.759	664.4
823.157	645.4
823.576	672
823.974	660.6
824.393	780.4
824.791	645
825.189	641.2
825.609	643
826.007	652.6
826.427	638.2
826.826	648.2
827.246	656.6
827.644	637.2
828.043	671.6
828.463	647.4
828.862	658.2
829.261	661
829.682	641.4
830.081	670.4
830.502	642.8
830.901	664.4
831.301	643.8
831.722	641.6
832.121	656
832.521	649.4
832.943	653
833.342	661.2
833.742	659.6
834.164	654
834.564	636
834.965	650.6
835.386	645.8
835.787	658
836.188	656
836.588	661.8
837.01	654.2
837.411	646
837.812	674.2
838.213	656.4
838.636	649.6
839.037	734.4
839.438	662.2
839.84	651.8
840.263	662.6
840.664	658.2
841.066	660.8
841.468	658
841.891	656.6
842.293	674.6
842.695	655.8
843.098	669.6
843.5	657.6
843.902	659.8
844.326	670
844.729	659.8
845.131	665.8
845.534	660.6
845.937	671.6
846.34	676
846.764	645.8
847.167	654.2
847.571	640.4
847.974	650.6
848.377	648.2
848.781	704.2
849.184	672
849.588	644.4
849.992	646
850.396	655.4
850.821	675
851.225	661.6
851.63	645.2
852.034	663.6
852.438	662.4
852.843	799.6
853.247	651.2
853.652	646.8
854.057	670
854.462	658.8
854.867	658.8
855.272	690.6
