#lambda/nm	C1
208.295	538.2
208.67	486.8
209.045	451.4
209.419	453.2
209.794	690.2
210.169	667.4
210.544	806.4
210.919	694
211.295	678.6
211.67	690.2
212.045	674.8
212.421	675.2
212.796	729.8
213.172	679.6
213.547	684.6
213.923	681.8
214.299	675.4
214.675	696.8
215.051	687.2
215.427	694.4
215.803	701.8
216.179	693.6
216.555	682.2
216.932	696
217.308	687.4
217.684	684.2
218.061	688.2
218.438	688
218.814	677.2
219.191	687.8
219.568	680.8
219.945	679.2
220.322	694.2
220.699	689.6
221.076	693.6
221.453	689.4
221.83	682
222.208	684.4
222.585	684
222.962	689.2
223.34	687
223.717	684.6
224.095	672.2
224.473	686.4
224.851	686.2
225.229	678.2
225.607	704
225.985	679.6
226.363	688.2
226.741	690.4
227.119	689
227.497	705.4
227.876	668.2
228.254	701.2
228.633	689.4
229.011	688.8
229.39	686
229.769	684
230.148	696.8
230.527	708.2
230.905	684.8
231.284	677.2
231.664	678.6
232.043	692
232.422	692.2
232.801	671.6
233.181	690.2
233.56	688.4
233.94	684.2
234.319	669.2
234.699	678
235.079	732.4
235.458	725.6
235.838	701.6
236.218	669.6
236.598	681.4
236.978	679.2
237.358	681.6
237.738	680.4
238.119	695.4
238.499	677.6
238.88	688.6
239.26	707.2
239.641	668
240.021	675.6
240.402	679
240.783	682.4
241.163	685
241.544	684.4
241.925	682.8
242.306	710.6
242.687	686.6
243.069	684.6
243.45	696.2
243.831	678.8
244.212	689.2
244.594	724.2
244.975	697.4
245.357	695.6
245.739	682.8
246.12	693.2
246.502	702.4
246.884	683.6
247.266	682.8
247.648	694.6
248.03	715.6
248.412	694.4
248.794	689.6
249.176	680
249.559	697.4
249.941	681.6
250.323	671.4
250.706	677.8
251.089	690.4
251.471	690.8
251.854	682.2
252.237	688.8
252.62	693.6
253.002	689
253.385	686.2
253.769	694.6
254.152	685.6
254.535	690
254.918	666.6
255.301	682
255.685	675.8
256.068	674.6
256.452	717.4
256.835	697
257.219	692.6
257.603	702.4
257.986	675.6
258.37	694.6
258.754	672.6
259.138	686.8
259.522	706.4
259.906	678.4
260.29	691.8
260.675	681.6
261.059	681.8
261.443	674.8
261.828	694.6
262.212	697.8
262.597	678
262.981	674.8
263.366	697.2
263.751	674.6
264.136	687.4
264.521	680.2
264.906	674.6
265.291	696
265.676	681
266.061	690.8
266.446	703.4
266.831	672
267.217	700.8
267.602	682.8
267.987	682.2
268.373	673.6
268.759	690.8
269.144	685.4
269.53	678.8
269.916	671.4
270.302	671
270.688	685.6
271.074	690
271.46	697.6
271.846	730.2
272.232	683.4
272.618	670.4
273.004	680.2
273.391	696.8
273.777	708
274.164	698
274.55	705
274.937	688.2
275.324	687.6
275.71	694.6
276.097	694.4
276.484	672.6
276.871	689.6
277.258	684
277.645	675.8
278.032	684
278.419	689.6
278.807	685.4
279.194	681.4
279.581	679.6
279.969	693.2
280.356	691.8
280.744	685.6
281.131	716
281.519	699.6
281.907	682.6
282.295	680.2
282.682	698.8
283.07	698
283.458	699.4
283.846	695.4
284.235	697.8
284.623	696
285.011	681.2
285.399	682.8
285.788	683
286.176	672.8
286.565	699.2
286.953	684.2
287.342	676
287.731	677.8
288.119	675.4
288.508	678.4
288.897	691
289.286	660.4
289.675	684
290.064	696.4
290.453	679.8
290.821	689.6
291.21	705.6
291.599	682.6
291.989	687
292.378	696
292.768	714
293.157	691.2
293.547	702
293.936	691.8
294.326	687.6
294.716	691
295.106	686
295.496	693.2
295.886	697.8
296.276	690.4
296.666	680.4
297.056	681.4
297.446	686.4
297.836	706.8
298.227	680.8
298.617	690.4
299.008	701.4
299.398	687.6
299.789	690.4
300.179	687.2
300.57	694.8
300.961	683
301.352	684.8
301.742	689.8
302.133	690
302.524	686.4
302.915	696
303.307	676.6
303.698	693.4
304.089	689.8
304.48	681.6
304.872	688.2
305.263	681.6
305.655	685.4
306.046	689.4
306.438	692.4
306.829	688.8
307.221	701.4
307.613	699.2
308.005	697.4
308.397	702.8
308.789	714
309.181	714
309.573	718
309.965	705
310.357	682.4
310.749	707
311.142	678.2
311.534	687.2
311.926	697.6
312.319	688.4
312.711	682.2
313.104	706
313.497	688
313.889	731.6
314.282	707.2
314.675	707
315.068	688.8
315.461	704.6
315.854	730
316.247	696
316.64	689.4
317.033	696.4
317.405	697.2
317.798	690.8
318.192	695.8
318.585	687.6
318.979	687.8
319.372	679.6
319.766	683.2
320.16	700.2
320.553	713.4
320.947	711.6
321.341	681.6
321.735	688.4
322.129	674.2
322.523	714.4
322.917	684
323.311	707.8
323.705	689.2
324.099	691.6
324.494	712
324.888	699
325.282	683.8
325.677	706.6
326.071	701.8
326.466	701.8
326.861	695.4
327.255	706.8
327.65	711.6
328.045	706.2
328.44	692
328.835	687.6
329.23	686
329.625	717.8
330.02	679.6
330.415	716.8
330.81	700.6
331.206	693.8
331.601	682
331.996	695.2
332.37	715.8
332.766	669.4
333.161	725.8
333.557	686
333.953	689.4
334.348	1022.4
334.744	699.4
335.14	687.6
335.536	682.4
335.932	717.4
336.328	688.2
336.724	697
337.12	690.2
337.516	691.6
337.913	692.4
338.309	705.2
338.705	690.8
339.102	701.4
339.498	674.2
339.895	699
340.291	683.8
340.688	702.6
341.085	681.6
341.481	678.2
341.878	687.8
342.275	705.2
342.672	680.8
343.069	682.6
343.466	672.8
343.842	697.6
344.239	679.6
344.636	690.8
345.033	683
345.431	684.4
345.828	688.4
346.225	676.8
346.623	726.2
347.02	686
347.418	697.4
347.816	714.8
348.213	693
348.611	691.4
349.009	678.6
349.407	703.2
349.805	667.6
350.203	673.8
350.601	695.4
350.999	686.8
351.397	760.2
351.795	686
352.193	698.2
352.57	690.6
352.969	705
353.367	679.6
353.766	680
354.164	686.2
354.563	700.6
354.961	688
355.36	683.8
355.759	681.8
356.158	677.2
356.557	681.4
356.956	671.2
357.355	673.2
357.754	689.6
358.153	698.4
358.552	715.6
358.951	677.6
359.35	689.2
359.75	677.6
360.149	672.2
360.527	671.6
360.926	681
361.326	693.6
361.726	679
362.125	664.4
362.525	685.8
362.925	679.2
363.325	681
363.724	683
364.124	674
364.524	671.4
364.924	677.4
365.324	692.4
365.725	676.8
366.125	692.2
366.525	685
366.904	672.6
367.304	660
367.705	697.4
368.105	684.6
368.506	681.6
368.906	679.2
369.307	679
369.708	693.8
370.108	671.4
370.509	694.4
370.91	678.6
371.311	676.2
371.712	676.6
372.113	668
372.514	660.2
372.894	673
373.295	678
373.696	690.8
374.097	684.4
374.499	709.4
374.9	683.4
375.301	671.8
375.703	677.4
376.105	666
376.506	680.4
376.908	682.2
377.309	674.8
377.711	677
378.113	676.2
378.493	675.6
378.895	673.6
379.297	684.4
379.699	656.4
380.102	687.6
380.504	680.4
380.906	675.6
381.308	713.2
381.71	675.4
382.113	695.6
382.515	679.2
382.918	690.4
383.299	684.2
383.701	693.8
384.104	675.8
384.507	665
384.909	672.6
385.312	669.2
385.715	669.6
386.118	679.6
386.521	665.4
386.924	703
387.327	667.4
387.709	655.2
388.112	662
388.515	678.4
388.918	682.2
389.322	682
389.725	679.4
390.129	701.6
390.532	686.4
390.936	672.4
391.339	672.6
391.743	679.8
392.125	671.8
392.529	686.8
392.933	699.4
393.337	675
393.74	671.6
394.144	674.8
394.548	674
394.953	671
395.357	685.6
395.761	678
396.144	681.2
396.548	682.6
396.952	679.2
397.357	682
397.761	668.4
398.166	671.4
398.57	681.6
398.975	671.8
399.379	681.6
399.763	742
400.168	674.6
400.572	676.2
400.977	676.8
401.382	700.4
401.787	687.2
402.192	696.2
402.597	705.8
403.002	660.6
403.386	689.8
403.791	694.8
404.197	679.8
404.602	680.2
405.007	679.6
405.413	665.8
405.818	687.4
406.224	674.4
406.608	680.6
407.014	673.6
407.42	697
407.825	677.6
408.231	693.8
408.637	685.4
409.043	702.6
409.449	680
409.834	672.6
410.24	687
410.646	695
411.052	697
411.458	683.8
411.865	686.8
412.271	688
412.677	676.8
413.062	686.4
413.469	675.2
413.875	713.6
414.282	693.2
414.689	693.2
415.095	692.8
415.502	678.6
415.888	688
416.294	658.8
416.701	729.4
417.108	680.6
417.515	685
417.923	685.8
418.33	701.6
418.715	691.2
419.123	678.8
419.53	680.4
419.937	683.4
420.345	699.2
420.752	679
421.16	699.8
421.546	669.4
421.953	690.4
422.361	668.8
422.769	676.6
423.177	681.4
423.585	716
423.992	710.8
424.379	698.2
424.787	701.4
425.195	710.8
425.603	679.4
426.011	695
426.419	697.8
426.806	689.8
427.214	684
427.623	693.6
428.031	706.6
428.44	694.2
428.848	702.2
429.235	706.2
429.644	687.2
430.053	679.4
430.461	708
430.87	720.2
431.279	702
431.666	684
432.075	686
432.484	691.6
432.893	688.6
433.302	708
433.711	743
434.099	692.2
434.508	680.2
434.918	666
435.327	696.2
435.737	683.8
436.125	691.4
436.534	683.4
436.944	688.6
437.353	693.6
437.763	715.8
438.173	675.8
438.561	696
438.971	670.8
439.381	679.2
439.791	685.4
440.201	663
440.589	690.2
440.999	698.2
441.409	681
441.819	667.8
442.23	677
442.619	693.6
443.029	679.8
443.439	684.8
443.85	685.4
444.26	696.8
444.649	690.2
445.06	681.6
445.471	677.6
445.881	680.6
446.292	695
446.682	699.4
447.092	668
447.503	736.2
447.914	684.6
448.325	690
448.715	681.2
449.126	675.4
449.537	680.6
449.948	679
450.338	685.2
450.75	679.4
451.161	684.2
451.572	697.6
451.984	671
452.374	656
452.786	673.2
453.197	683
453.609	685.4
453.999	669
454.411	660.4
454.823	694.2
455.235	682.2
455.647	678.2
456.037	686.2
456.449	669
456.862	681.6
457.274	682.4
457.665	669.4
458.077	689.4
458.489	716.2
458.902	667.8
459.293	686
459.705	670.8
460.118	675
460.53	684.6
460.921	680.4
461.334	683.8
461.747	674.8
462.16	694.6
462.551	695.8
462.964	681.4
463.377	666
463.79	668.2
464.182	687.4
464.595	664.8
465.008	678.4
465.421	686
465.813	670.4
466.226	691.2
466.64	674
467.053	732.6
467.445	687.2
467.859	682.4
468.272	684.2
468.686	694.8
469.078	675.2
469.492	669.2
469.906	672.4
470.298	681
470.712	667.2
471.126	740.4
471.54	668.8
471.933	665.8
472.347	675.8
472.761	673.4
473.175	666.8
473.568	668
473.982	658
474.397	671.6
474.79	671.4
475.204	676.8
475.619	675.4
476.033	681.4
476.426	669.4
476.841	666
477.256	694.4
477.649	663.2
478.064	652.2
478.479	664.4
478.872	660.4
479.287	647.8
479.702	655
480.118	673
480.511	673.2
480.927	665
481.342	662.6
481.736	669.8
482.151	661.2
482.566	679.2
482.96	665.4
483.376	687.8
483.792	658.4
484.186	676.6
484.602	667
485.017	677.4
485.412	670.4
485.827	683.6
486.243	676.8
486.638	700.4
487.054	689.4
487.47	687.8
487.865	666.4
488.281	665
488.697	669.2
489.092	673.8
489.508	665.8
489.925	678.8
490.32	662.4
490.736	686.6
491.153	678
491.548	684.2
491.964	677.4
492.381	654
492.776	676.6
493.193	672.8
493.61	693.8
494.006	673.4
494.422	671.2
494.84	667.4
495.235	680
495.652	671.6
496.069	670
496.465	657.4
496.883	675
497.3	696.6
497.696	666.2
498.113	678.6
498.509	655.2
498.927	669.6
499.344	664
499.741	663
500.158	678.8
500.576	684.6
500.973	678.4
501.39	662.6
501.787	662
502.205	679.8
502.623	667.8
503.02	660.8
503.438	660.4
503.856	674.2
504.253	668
504.671	673
505.068	658.8
505.486	665.2
505.905	695.4
506.302	669.4
506.72	682.4
507.118	658.8
507.536	671.4
507.955	668
508.352	676
508.771	672.6
509.169	677.8
509.587	664.2
510.006	669.2
510.404	651.2
510.823	665.8
511.221	659.6
511.64	669.8
512.038	692
512.457	674
512.877	672.8
513.275	663.8
513.694	667.8
514.092	663
514.512	682.4
514.91	667
515.33	668.4
515.749	675.8
516.148	670.8
516.568	680.4
516.966	659.2
517.386	660.4
517.785	672.8
518.205	664.6
518.603	666
519.024	654.2
519.444	668.4
519.843	674.2
520.263	681.4
520.662	674.6
521.082	671.6
521.481	660.8
521.902	670
522.301	671.4
522.722	672.8
523.121	668.2
523.542	665.4
523.963	669.4
524.362	674.4
524.783	666.4
525.183	666.6
525.604	671
526.003	660.4
526.425	659.8
526.824	674.8
527.246	681.6
527.646	673.6
528.067	670
528.467	677.8
528.888	676.6
529.289	664.6
529.71	669
530.11	667.2
530.532	665.4
530.932	659.4
531.354	656.2
531.755	706.6
532.176	683.6
532.577	670.6
532.999	667
533.4	662.8
533.822	681.2
534.223	668.4
534.645	669.8
535.046	654.4
535.468	670.6
535.869	683
536.292	654.4
536.693	710
537.115	675.4
537.516	661.6
537.939	661
538.34	685.8
538.742	679.4
539.165	671
539.566	668
539.989	666.4
540.391	669.4
540.814	669.2
541.216	677
541.639	669.8
542.041	679.4
542.464	672.8
542.866	665.6
543.268	655.8
543.691	672.8
544.093	666
544.517	682.2
544.919	653
545.343	686.6
545.745	651.2
546.147	669.4
546.571	663
546.974	658
547.398	671.8
547.8	678.2
548.224	663.4
548.627	656.6
549.03	671.6
549.454	656.4
549.857	651.2
550.281	657.8
550.684	666.4
551.087	673
551.512	675.8
551.915	668.8
552.34	663.2
552.743	665.4
553.146	666.8
553.571	659.6
553.975	692.4
554.399	662.4
554.803	722.2
555.207	670
555.632	659.8
556.036	670.8
556.461	663
556.865	669.4
557.268	668.4
557.694	653.8
558.098	679.2
558.502	673
558.927	665.6
559.332	665.4
559.736	671.4
560.162	674.2
560.566	667.6
560.992	677
561.396	668.2
561.801	657.6
562.227	671.8
562.631	665.8
563.036	664.8
563.462	677.4
563.867	665.2
564.272	655
564.698	675.6
565.103	659.4
565.508	689.2
565.935	668
566.34	657.4
566.745	683
567.172	664.8
567.577	683.4
567.982	675.6
568.409	663.4
568.815	656.4
569.22	665.2
569.626	673.2
570.053	648.6
570.459	665.2
570.865	669
571.292	677.8
571.698	670.8
572.104	644.4
572.531	662.8
572.937	682.4
573.343	667.2
573.75	664.2
574.177	676.8
574.583	677.4
574.99	660.2
575.396	672.8
575.824	652.4
576.231	664
576.637	659.4
577.065	699
577.472	660.4
577.879	660.2
578.286	678.4
578.714	658
579.121	650
579.528	659
579.935	674.8
580.364	651.4
580.771	647
581.178	644.8
581.585	665.8
582.014	664.4
582.421	643.8
582.829	658.2
583.236	670.8
583.644	652.4
584.073	659.4
584.481	656
584.889	649.2
585.296	665.8
585.726	657
586.134	661.6
586.542	650.4
586.95	682
587.358	652.2
587.787	668
588.196	654.4
588.604	658.6
589.012	656
589.421	659.4
589.851	655.4
590.259	665.6
590.668	654.2
591.076	709.2
591.485	647
591.894	667.6
592.324	679.6
592.733	674.8
593.142	655.8
593.551	665.4
593.96	667.4
594.369	646.2
594.8	643.4
595.209	664.4
595.618	647.2
596.028	660.4
596.437	647.4
596.847	661.2
597.256	664.8
597.687	670
598.097	658.8
598.507	650.8
598.917	664.6
599.327	669.4
599.736	666.2
600.146	669.8
600.556	660.2
600.988	676.4
601.398	662
601.808	673
602.219	655.6
602.629	663.2
603.039	667.2
603.45	688.8
603.86	670.6
604.271	673.2
604.703	661.2
605.114	667.6
605.525	660.2
605.935	671
606.346	690.4
606.757	677.8
607.168	656.8
607.579	658.4
607.99	682.8
608.402	663.8
608.813	669.6
609.224	659.4
609.636	648.2
610.047	649.2
610.48	660.6
610.892	671.8
611.303	682
611.715	661.2
612.127	651.4
612.539	656.6
612.95	661.6
613.362	651.4
613.774	650.4
614.186	666.8
614.599	652
615.011	672.8
615.423	667.8
615.835	662.2
616.248	656.4
616.66	669.4
617.073	644.8
617.485	651
617.898	672.6
618.311	664.4
618.723	661.2
619.136	692.6
619.549	672.8
619.962	689.4
620.375	656
620.788	672
621.201	649.8
621.614	661.2
622.028	658.6
622.441	666.4
622.854	677.8
623.268	655.4
623.681	669.8
624.095	663.2
624.509	663.2
624.922	670.8
625.336	649
625.728	671.8
626.142	671
626.556	682.2
626.97	669.6
627.384	648.6
627.799	665.8
628.213	679.4
628.627	665.8
629.041	664.8
629.456	671.4
629.87	665.8
630.285	666
630.699	670.4
631.093	653.8
631.507	673.2
631.922	664.2
632.337	673.8
632.752	661.8
633.167	664.4
633.582	656.6
633.997	655.8
634.412	653.4
634.806	663.4
635.221	654.8
635.637	673.6
636.052	642.4
636.468	661.2
636.883	685.2
637.299	660
637.715	644
638.109	668.6
638.525	648.8
638.941	669.2
639.357	673
639.773	675.2
640.189	666
640.584	665.8
641	659.6
641.416	643.8
641.832	656
642.249	659
642.665	664
643.06	673.2
643.477	671.8
643.894	647.2
644.31	658.8
644.727	657.4
645.123	660.6
645.54	652.8
645.957	660.2
646.374	682.6
646.77	665
647.187	688.8
647.604	671.4
648.021	646.6
648.439	645.8
648.835	667.8
649.252	647
649.67	653.2
650.088	664.2
650.484	673.2
650.902	662.8
651.32	664.4
651.738	664.8
652.134	660.6
652.552	677.4
652.971	668
653.389	663.2
653.786	669.2
654.204	684.4
654.622	645.6
655.019	661.8
655.438	666
655.857	672.8
656.275	668.6
656.673	652
657.091	733.4
657.51	653.4
657.908	665.2
658.327	679
658.746	650
659.144	658.2
659.563	673.8
659.982	668
660.38	647.8
660.8	662.8
661.219	671.8
661.617	670.4
662.037	668.8
662.457	675.6
662.855	646.2
663.275	706.6
663.695	648.2
664.094	660
664.514	672.8
664.934	650.6
665.333	665.2
665.753	649
666.152	646.2
666.572	655.8
666.993	666.8
667.392	652.4
667.812	654
668.212	666.2
668.632	673.6
669.053	657.8
669.453	660.6
669.874	666
670.273	666.4
670.694	644.6
671.116	676.2
671.515	665.2
671.937	660
672.337	662
672.758	642.2
673.158	670
673.58	653.2
673.98	654.8
674.402	667.4
674.824	656.8
675.224	649.6
675.646	650.2
676.047	654.6
676.469	658.8
676.869	673.2
677.292	656.4
677.693	653.6
678.115	655.2
678.516	657.6
678.939	668.8
679.34	647.6
679.762	671.8
680.164	660.6
680.586	652.8
680.988	662.6
681.411	694
681.812	648.4
682.236	653.8
682.637	652.2
683.061	641.2
683.462	659.4
683.864	655
684.288	660.8
684.69	645.4
685.114	663.4
685.516	669.6
685.94	644.8
686.342	660.8
686.766	643.6
687.168	644.6
687.571	683.6
687.995	662.8
688.398	646.6
688.822	651
689.225	678
689.628	676.6
690.052	656.8
690.456	666.8
690.88	658.2
691.284	656
691.687	654.4
692.112	652.6
692.515	651.6
692.919	654.6
693.344	665.6
693.747	664.2
694.173	653.4
694.577	673.4
694.98	655.4
695.406	654.6
695.81	656.6
696.214	665
696.64	666.8
697.044	660.2
697.448	675.2
697.874	659.6
698.279	658.6
698.684	645.8
699.11	649.6
699.514	652.4
699.919	653
700.324	648
700.75	669
701.156	656.4
701.561	666
701.987	660.4
702.393	671.2
702.798	671.4
703.203	655
703.63	644
704.036	657.4
704.442	652.6
704.847	647.8
705.274	649
705.68	670.6
706.086	674.4
706.492	648.8
706.92	662.8
707.326	670.6
707.732	646.8
708.139	651.8
708.545	652.2
708.973	655.6
709.38	657.8
709.786	652
710.193	681.2
710.6	665.6
711.028	652.6
711.435	663.6
711.842	661.8
712.249	657.4
712.656	657
713.064	657.6
713.492	651.2
713.9	648.4
714.307	664.8
714.715	658.6
715.123	658
715.53	661.2
715.938	670.8
716.367	660.2
716.775	653.2
717.184	651.8
717.592	654.8
718	678.4
718.408	701.2
718.816	698.4
719.225	662.4
719.633	651.2
720.042	648.2
720.472	655.6
720.881	680.4
721.29	663.6
721.699	648.8
722.108	671.2
722.517	667.4
722.926	654.8
723.335	672.4
723.744	660.2
724.154	658.8
724.563	663
724.973	653.6
725.382	662.8
725.792	660.6
726.202	645
726.612	683
727.022	662.4
727.432	658.4
779.813	650.8
780.223	708.6
780.634	651.2
781.044	659
781.454	650
781.865	667.6
782.276	652.8
782.686	666.4
783.097	649.2
783.508	655.4
783.919	661.6
784.33	675.4
784.741	668.6
785.152	651.8
785.563	641.8
785.974	652.4
786.386	673.6
786.776	650.2
787.188	662.6
787.599	644.6
788.011	656
788.423	667.4
788.835	649.4
789.247	649.8
789.659	649.8
790.071	657.8
790.483	706.2
790.874	655.8
791.286	668.8
791.699	650.4
792.111	659.8
792.524	659.2
792.937	654
793.349	642.8
793.741	645.6
794.154	656
794.567	672.4
794.98	654.4
795.393	648.4
795.785	671.8
796.198	652.4
796.612	654.4
797.026	658.4
797.439	635.2
797.831	658.6
798.245	647
798.659	655.8
799.073	643.8
799.487	645
799.88	656.2
800.294	652.8
800.708	661.8
801.123	652.6
801.516	685
801.93	645.8
802.345	638.4
802.76	646
803.153	669.2
803.568	669.2
803.983	667.6
804.377	659.8
804.792	647.8
805.207	640
805.601	652.2
806.016	693.2
806.432	651.8
806.826	693
807.242	674.2
807.658	661.8
808.052	655
808.468	649.6
808.884	653.2
809.279	657.4
809.695	663
810.111	673.2
810.506	663.2
810.922	673.2
811.339	655.2
811.734	676
812.151	655.8
812.546	659.6
812.963	652
813.38	661.8
813.776	659.4
814.193	679
814.589	644.2
815.006	651.2
815.402	645
815.82	645.2
816.237	643.6
816.633	660.2
817.051	650.4
817.448	656
817.866	643.2
818.262	678.6
818.68	657.2
819.077	647.8
819.495	652.4
819.892	706.8
820.311	654.6
820.708	655.2
821.127	662.6
821.524	674.2
821.943	654.2
822.34	682.4
822.759	654.4
823.157	661
823.576	681.4
823.974	659.6
824.393	779.4
824.791	648.2
825.189	647
825.609	650.2
826.007	657.4
826.427	636.4
826.826	648
827.246	648.4
827.644	634.6
828.043	660.6
828.463	648
828.862	655.8
829.261	670.2
829.682	645.2
830.081	661.8
830.502	642
830.901	647.8
831.301	653.2
831.722	638
832.121	655.2
832.521	648.6
832.943	657.6
833.342	656
833.742	645.2
834.164	649.2
834.564	640.8
834.965	644.2
835.386	647
835.787	643.6
836.188	648.6
836.588	663.2
837.01	644.8
837.411	636
837.812	662.8
838.213	658.4
838.636	652.4
839.037	727.2
839.438	647
839.84	651
840.263	651
840.664	655.4
841.066	654.2
841.468	651.8
841.891	641.6
842.293	665.4
842.695	655.6
843.098	659.4
843.5	641.2
843.902	656.8
844.326	659.6
844.729	650.8
845.131	671.8
845.534	656
845.937	659.8
846.34	673.2
846.764	646.2
847.167	661.2
847.571	649.8
847.974	658.8
848.377	654.8
848.781	703.8
849.184	674.8
849.588	658.6
849.992	645.2
850.396	649.6
850.821	675.2
851.225	658.4
851.63	659.2
852.034	669
852.438	659.2
852.843	791.2
853.247	647.6
853.652	647.6
854.057	672.8
854.462	662
854.867	655.6
855.272	679.8
855.677	652.6
