#lambda/nm	C1
208.295	540
208.67	488.4
209.045	448
209.419	448.4
209.794	685
210.169	660.4
210.544	812.6
210.919	694.8
211.295	671
211.67	678.2
212.045	679
212.421	672.6
212.796	723.4
213.172	668
213.547	670.4
213.923	678.8
214.299	677.6
214.675	690.6
215.051	683.2
215.427	694.8
215.803	709.4
216.179	688
216.555	673.4
216.932	701.6
217.308	692.2
217.684	692.8
218.061	690.6
218.438	692.4
218.814	684.2
219.191	693.4
219.568	682
219.945	677.2
220.322	686.6
220.699	687
221.076	692.4
221.453	692
221.83	672.4
222.208	683.4
222.585	687.2
222.962	697.4
223.34	683.6
223.717	684
224.095	684.4
224.473	685.6
224.851	677
225.229	674.8
225.607	703
225.985	676.2
226.363	689.6
226.741	690.4
227.119	690.2
227.497	699
227.876	675.8
228.254	693.6
228.633	700.8
229.011	694.6
229.39	690.2
229.769	685.2
230.148	694.2
230.527	704
230.905	684.2
231.284	699.8
231.664	692.6
232.043	702.4
232.422	694.8
232.801	685.4
233.181	694.4
233.56	685.2
233.94	694.8
234.319	670.8
234.699	684.8
235.079	731.8
235.458	725.2
235.838	700.6
236.218	682.6
236.598	669.2
236.978	680
237.358	676.4
237.738	680.2
238.119	693.6
238.499	669.8
238.88	689.4
239.26	703.4
239.641	669.2
240.021	682
240.402	686
240.783	689.4
241.163	676.4
241.544	687.6
241.925	685
242.306	701.4
242.687	682.2
243.069	686
243.45	696.8
243.831	678.2
244.212	688.2
244.594	742.4
244.975	696.4
245.357	692.8
245.739	679.6
246.12	697
246.502	703.8
246.884	686.6
247.266	688.2
247.648	691
248.03	716.2
248.412	686.4
248.794	693.4
249.176	682.8
249.559	707.2
249.941	676.2
250.323	678.8
250.706	686.2
251.089	687.2
251.471	682.4
251.854	687.6
252.237	685.4
252.62	696
253.002	690.6
253.385	684.6
253.769	701.2
254.152	687.2
254.535	693.4
254.918	685.6
255.301	689.4
255.685	685.8
256.068	672.4
256.452	716.6
256.835	701.6
257.219	691.6
257.603	701.4
257.986	673.8
258.37	691.2
258.754	675.2
259.138	686.4
259.522	707.8
259.906	688.4
260.29	694.6
260.675	682.4
261.059	689
261.443	676.4
261.828	694.4
262.212	691.6
262.597	684
262.981	680.6
263.366	687.2
263.751	686.2
264.136	682
264.521	683.6
264.906	679.4
265.291	699
265.676	681.4
266.061	695.8
266.446	707.6
266.831	686.2
267.217	695.6
267.602	685.8
267.987	691.8
268.373	683.8
268.759	710.8
269.144	694
269.53	684.4
269.916	689
270.302	686.8
270.688	701.4
271.074	695
271.46	698.8
271.846	722.2
272.232	681.8
272.618	689.2
273.004	687.8
273.391	708
273.777	698.4
274.164	702
274.55	705.8
274.937	683.4
275.324	688.8
275.71	702.6
276.097	691.4
276.484	673.4
276.871	686.8
277.258	685.4
277.645	676.2
278.032	681.2
278.419	685.6
278.807	687.2
279.194	684.8
279.581	675.6
279.969	700.2
280.356	689.8
280.744	694
281.131	719.2
281.519	696.8
281.907	682.8
282.295	687.2
282.682	690.4
283.07	698.8
283.458	700.4
283.846	708
284.235	708.6
284.623	699.8
285.011	674.4
285.399	691
285.788	685.6
286.176	675.8
286.565	705
286.953	682.6
287.342	686.2
287.731	686
288.119	684.8
288.508	684.2
288.897	687.2
289.286	675
289.675	684.6
290.064	704
290.453	681.6
290.821	685.2
291.21	713.2
291.599	682
291.989	683.6
292.378	695.8
292.768	701.4
293.157	696.6
293.547	700
293.936	678.8
294.326	681
294.716	690.8
295.106	684
295.496	697.2
295.886	692.2
296.276	686.4
296.666	692.6
297.056	688.8
297.446	679.2
297.836	703.4
298.227	680.4
298.617	689.6
299.008	699.6
299.398	686.4
299.789	685
300.179	702.8
300.57	708.4
300.961	683.6
301.352	677.2
301.742	704.4
302.133	693.2
302.524	688
302.915	694.2
303.307	686
303.698	688.8
304.089	695
304.48	688.2
304.872	689.6
305.263	696.8
305.655	678.8
306.046	696.2
306.438	691.2
306.829	680.2
307.221	705
307.613	699.6
308.005	702.4
308.397	702.8
308.789	709.6
309.181	716.2
309.573	711.2
309.965	697.4
310.357	685.6
310.749	707
311.142	682.8
311.534	679.4
311.926	694.6
312.319	701.4
312.711	685.2
313.104	708.2
313.497	692.4
313.889	734.6
314.282	708.6
314.675	717
315.068	692.6
315.461	698.2
315.854	723.4
316.247	700.6
316.64	687.2
317.033	691.8
317.405	692.8
317.798	692.6
318.192	695.6
318.585	674.6
318.979	691.4
319.372	687.2
319.766	688.8
320.16	694.6
320.553	709.2
320.947	714.6
321.341	684.4
321.735	696.8
322.129	675.8
322.523	726.2
322.917	686.4
323.311	707.4
323.705	697.8
324.099	696.2
324.494	712
324.888	697.8
325.282	681.4
325.677	705.4
326.071	700.4
326.466	700
326.861	695.4
327.255	705.2
327.65	700.4
328.045	710.6
328.44	690
328.835	693.4
329.23	684.8
329.625	710.8
330.02	688
330.415	709.6
330.81	696.4
331.206	698.2
331.601	685.6
331.996	696.4
332.37	713.6
332.766	688.8
333.161	722.4
333.557	684.6
333.953	692.8
334.348	1029.6
334.744	686.2
335.14	687.6
335.536	691.4
335.932	702.8
336.328	687
336.724	708.6
337.12	682.4
337.516	694
337.913	691.8
338.309	710.2
338.705	690
339.102	705.4
339.498	688.2
339.895	705.4
340.291	685.6
340.688	703.2
341.085	683.8
341.481	695.2
341.878	680.6
342.275	715
342.672	679
343.069	682.6
343.466	673.2
343.842	693.2
344.239	674.2
344.636	693.6
345.033	674
345.431	678.8
345.828	703.2
346.225	677.2
346.623	730.4
347.02	696.4
347.418	702.6
347.816	699.8
348.213	677.4
348.611	702.8
349.009	683.2
349.407	705.6
349.805	673.8
350.203	679.8
350.601	699.4
350.999	682.2
351.397	750.8
351.795	688.8
352.193	701
352.57	682.6
352.969	696
353.367	680
353.766	679
354.164	677.2
354.563	703
354.961	686.4
355.36	679.4
355.759	681
356.158	674.2
356.557	685.2
356.956	682.8
357.355	673.8
357.754	681.2
358.153	689.2
358.552	707.2
358.951	682.8
359.35	699.4
359.75	692.2
360.149	681.2
360.527	664
360.926	674.6
361.326	692.6
361.726	687.2
362.125	686
362.525	702.2
362.925	689.4
363.325	692.4
363.724	683.4
364.124	679.4
364.524	672.2
364.924	686.2
365.324	701.6
365.725	665
366.125	692.2
366.525	690.4
366.904	676.2
367.304	665.6
367.705	706.8
368.105	703
368.506	684.2
368.906	684.6
369.307	679.2
369.708	691.4
370.108	664.2
370.509	686.6
370.91	683.4
371.311	681.4
371.712	679.2
372.113	669.6
372.514	682
372.894	680.2
373.295	672.2
373.696	702.2
374.097	690.2
374.499	716.4
374.9	687.6
375.301	674.8
375.703	689
376.105	671.4
376.506	689
376.908	690.4
377.309	684
377.711	687.4
378.113	673.2
378.493	686
378.895	674.4
379.297	692
379.699	668.4
380.102	691.4
380.504	672.6
380.906	670.8
381.308	708.4
381.71	680
382.113	697.6
382.515	679.6
382.918	680.2
383.299	677.4
383.701	686
384.104	687.4
384.507	658.8
384.909	681.8
385.312	674
385.715	677.6
386.118	674.8
386.521	672.2
386.924	696
387.327	678.2
387.709	667.4
388.112	661.6
388.515	684.8
388.918	683.8
389.322	685.8
389.725	678.8
390.129	709.2
390.532	685.8
390.936	667.8
391.339	679.6
391.743	688.6
392.125	669.8
392.529	695.6
392.933	696.8
393.337	680.6
393.74	677.6
394.144	685.6
394.548	677.6
394.953	680.2
395.357	691
395.761	678.2
396.144	680.6
396.548	675.2
396.952	678.6
397.357	688.2
397.761	681.8
398.166	676.6
398.57	678
398.975	672.8
399.379	683
399.763	735.6
400.168	677.6
400.572	680.6
400.977	685.8
401.382	691.8
401.787	690.2
402.192	694
402.597	697.8
403.002	671.2
403.386	697.4
403.791	709.8
404.197	675.8
404.602	684.2
405.007	678.4
405.413	680
405.818	683
406.224	677.2
406.608	679.6
407.014	670.4
407.42	703.6
407.825	679
408.231	688.4
408.637	682.4
409.043	698.2
409.449	675.6
409.834	671.8
410.24	686.8
410.646	690.4
411.052	690.2
411.458	685.2
411.865	695
412.271	689
412.677	681.4
413.062	692.2
413.469	668
413.875	706
414.282	700
414.689	676.6
415.095	680
415.502	679.2
415.888	686.6
416.294	677.4
416.701	727
417.108	681.8
417.515	686.8
417.923	678.6
418.33	709.4
418.715	692
419.123	677.6
419.53	674.4
419.937	681
420.345	697.4
420.752	679
421.16	698.8
421.546	688.2
421.953	688.4
422.361	663.2
422.769	679.2
423.177	680.6
423.585	704.2
423.992	713.4
424.379	706
424.787	696.6
425.195	712
425.603	690
426.011	703.4
426.419	694.6
426.806	688.4
427.214	688
427.623	697
428.031	708.2
428.44	688.2
428.848	695.6
429.235	703.6
429.644	690.6
430.053	686.8
430.461	703.4
430.87	719
431.279	694.6
431.666	677.2
432.075	692.6
432.484	693.6
432.893	676.8
433.302	712
433.711	737.2
434.099	684.8
434.508	679.4
434.918	679.4
435.327	698.4
435.737	687.8
436.125	689
436.534	691.8
436.944	688.6
437.353	683
437.763	712.6
438.173	671.6
438.561	696.8
438.971	660
439.381	685
439.791	687.2
440.201	667
440.589	690.2
440.999	686.8
441.409	685
441.819	663.8
442.23	688.8
442.619	695.2
443.029	684
443.439	685
443.85	695.6
444.26	701.6
444.649	694
445.06	679
445.471	671
445.881	683
446.292	693.8
446.682	705.2
447.092	672.6
447.503	733.4
447.914	679
448.325	675.8
448.715	678.2
449.126	674.4
449.537	675
449.948	672.4
450.338	671.2
450.75	690
451.161	678.6
451.572	686.2
451.984	673.2
452.374	661
452.786	679.4
453.197	683.4
453.609	684.6
453.999	657.6
454.411	671
454.823	696
455.235	684
455.647	668.4
456.037	677.2
456.449	652.2
456.862	677
457.274	675
457.665	668.4
458.077	683.4
458.489	725
458.902	674.6
459.293	677.6
459.705	681.6
460.118	661
460.53	676.6
460.921	679.4
461.334	686.6
461.747	680.4
462.16	694.8
462.551	694.2
462.964	689
463.377	674.2
463.79	667
464.182	684.2
464.595	672.6
465.008	681
465.421	683.8
465.813	675.8
466.226	679.8
466.64	668.8
467.053	730.6
467.445	691.8
467.859	701.2
468.272	683.2
468.686	695.2
469.078	679.2
469.492	657.8
469.906	675.4
470.298	684.4
470.712	674.6
471.126	742.4
471.54	659.2
471.933	672.2
472.347	663.6
472.761	666.8
473.175	666.8
473.568	671.2
473.982	669
474.397	679.6
474.79	663.2
475.204	679.4
475.619	672.2
476.033	688.8
476.426	675.6
476.841	668.8
477.256	711
477.649	675.2
478.064	674.6
478.479	670.8
478.872	665
479.287	654.4
479.702	665.2
480.118	671.8
480.511	677
480.927	676.2
481.342	659.2
481.736	675.2
482.151	667.4
482.566	683.4
482.96	664
483.376	694.2
483.792	663.6
484.186	682.4
484.602	670.6
485.017	670.6
485.412	668.2
485.827	693
486.243	679
486.638	697.2
487.054	674.2
487.47	694.4
487.865	666.2
488.281	673
488.697	670.2
489.092	668
489.508	658.4
489.925	680
490.32	671.2
490.736	685.4
491.153	672.4
491.548	687.4
491.964	684
492.381	660.6
492.776	681.2
493.193	680
493.61	677.4
494.006	675.2
494.422	680.6
494.84	663.8
495.235	680.8
495.652	677.4
496.069	669.4
496.465	666
496.883	672.2
497.3	699.8
497.696	668
498.113	683.8
498.509	659.4
498.927	671
499.344	669.6
499.741	664.6
500.158	680.8
500.576	689.8
500.973	675.8
501.39	663
501.787	662.2
502.205	680
502.623	668.2
503.02	663.6
503.438	659.4
503.856	671.8
504.253	673.4
504.671	675.2
505.068	665
505.486	662.2
505.905	694.8
506.302	674
506.72	694.6
507.118	661
507.536	680.6
507.955	673.8
508.352	680.6
508.771	675.6
509.169	680.4
509.587	663.4
510.006	668.8
510.404	657.6
510.823	663.6
511.221	659.2
511.64	667.2
512.038	687
512.457	665.2
512.877	674.4
513.275	664
513.694	672
514.092	664.4
514.512	668.8
514.91	667.2
515.33	663
515.749	662.2
516.148	674.2
516.568	670.8
516.966	667
517.386	662
517.785	665.8
518.205	651.2
518.603	667.4
519.024	657.6
519.444	671.4
519.843	678.8
520.263	680
520.662	667.2
521.082	675.2
521.481	676.6
521.902	662.8
522.301	677.6
522.722	669.4
523.121	668.2
523.542	666
523.963	667.6
524.362	666
524.783	672.8
525.183	663
525.604	666.2
526.003	658.2
526.425	655.6
526.824	671
527.246	672.6
527.646	678.2
528.067	673.6
528.467	664
528.888	675
529.289	663.8
529.71	674
530.11	668.4
530.532	658.2
530.932	662.4
531.354	662.6
531.755	709.2
532.176	679
532.577	664.8
532.999	674.6
533.4	662.4
533.822	678
534.223	665.6
534.645	668
535.046	662.4
535.468	670.2
535.869	681.6
536.292	673.2
536.693	715
537.115	670.2
537.516	666.4
537.939	665.6
538.34	693.8
538.742	682.8
539.165	670
539.566	661.2
539.989	665.4
540.391	660.4
540.814	671.8
541.216	661.2
541.639	666
542.041	680.4
542.464	665.8
542.866	654.8
543.268	657.6
543.691	670.4
544.093	676.4
544.517	695.6
544.919	657.6
545.343	692.6
545.745	648.6
546.147	674.6
546.571	664.6
546.974	654
547.398	674.6
547.8	679
548.224	674.6
548.627	658.2
549.03	672.8
549.454	659.4
549.857	654.8
550.281	662
550.684	668.8
551.087	678.6
551.512	669.8
551.915	671.2
552.34	664.8
552.743	659.4
553.146	674.2
553.571	671.2
553.975	682.8
554.399	659.2
554.803	733.4
555.207	654.4
555.632	653
556.036	666.4
556.461	652
556.865	660.8
557.268	661.4
557.694	655.2
558.098	676.4
558.502	662
558.927	664
559.332	658.2
559.736	665.8
560.162	676
560.566	665.6
560.992	669.8
561.396	662.8
561.801	650
562.227	674.2
562.631	657.2
563.036	669
563.462	677
563.867	674.4
564.272	651.2
564.698	661.4
565.103	650.8
565.508	681.8
565.935	665
566.34	667.8
566.745	682
567.172	659
567.577	696
567.982	677
568.409	669.8
568.815	660.6
569.22	662.6
569.626	672.2
570.053	645.6
570.459	674.2
570.865	679.8
571.292	676
571.698	676.8
572.104	651.4
572.531	661.2
572.937	674.4
573.343	672.4
573.75	668.2
574.177	674
574.583	669.2
574.99	666
575.396	674
575.824	663.4
576.231	669
576.637	654.6
577.065	702
577.472	664.6
577.879	664.4
578.286	684.4
578.714	656
579.121	662.2
579.528	662.2
579.935	675
580.364	669.8
580.771	649.8
581.178	663
581.585	671.4
582.014	676.2
582.421	654.4
582.829	662
583.236	672.8
583.644	662.8
584.073	665.6
584.481	671.6
584.889	662.2
585.296	666.6
585.726	667.4
586.134	656
586.542	667
586.95	686
587.358	656
587.787	667
588.196	653.8
588.604	655.8
589.012	665
589.421	645.8
589.851	662.4
590.259	668
590.668	658.2
591.076	704.4
591.485	651.8
591.894	670.2
592.324	680.4
592.733	683
593.142	653.4
593.551	669.2
593.96	674.6
594.369	648.6
594.8	659
595.209	672
595.618	650.8
596.028	658.6
596.437	657
596.847	668
597.256	658.4
597.687	672.8
598.097	669
598.507	659.8
598.917	670.6
599.327	670.6
599.736	658.4
600.146	680.6
600.556	667
600.988	677.8
601.398	662.8
601.808	682
602.219	646.6
602.629	665.6
603.039	668.2
603.45	692.2
603.86	668
604.271	678
604.703	668.6
605.114	664.4
605.525	673.4
605.935	675.6
606.346	692.4
606.757	668.8
607.168	660
607.579	658
607.99	677.6
608.402	679.6
608.813	670
609.224	653.4
609.636	650.4
610.047	665.8
610.48	663.8
610.892	671.4
611.303	668.2
611.715	663.6
612.127	654.8
612.539	657
612.95	665.8
613.362	646.4
613.774	642.8
614.186	667.4
614.599	651.6
615.011	670.8
615.423	661.4
615.835	671.6
616.248	650.4
616.66	659.4
617.073	644.8
617.485	658.8
617.898	664.6
618.311	668
618.723	662.6
619.136	689.4
619.549	669.8
619.962	690.6
620.375	654.2
620.788	663.6
621.201	653.8
621.614	677.2
622.028	663.6
622.441	662.4
622.854	681.2
623.268	654
623.681	666.2
624.095	662.8
624.509	677.4
624.922	675
625.336	644.2
625.728	664.8
626.142	671
626.556	681.8
626.97	665.2
627.384	658.8
627.799	659.8
628.213	678
628.627	660.2
629.041	655.2
629.456	658.4
629.87	658.2
630.285	673.6
630.699	671
631.093	662.2
631.507	667.4
631.922	661.6
632.337	686.2
632.752	650.8
633.167	660.2
633.582	657.8
633.997	656.4
634.412	656.2
634.806	667
635.221	653.8
635.637	675.8
636.052	651
636.468	662.8
636.883	677.6
637.299	654.6
637.715	648.8
638.109	653.4
638.525	647
638.941	670.4
639.357	665
639.773	673.4
640.189	656
640.584	664
641	659.6
641.416	648.6
641.832	658.8
642.249	662.8
642.665	664.2
643.06	663.2
643.477	667.8
643.894	649
644.31	655
644.727	666.8
645.123	669.8
645.54	651.4
645.957	666.2
646.374	679
646.77	658.8
647.187	702.2
647.604	660.4
648.021	658
648.439	665.8
648.835	668.2
649.252	662.2
649.67	666.2
650.088	664.8
650.484	666.6
650.902	664
651.32	676.4
651.738	656.6
652.134	658.6
652.552	681.8
652.971	666
653.389	654.8
653.786	676.8
654.204	687.2
654.622	661
655.019	664
655.438	665.6
655.857	650.4
656.275	663.2
656.673	657.4
657.091	742
657.51	659.4
657.908	669.6
658.327	679.2
658.746	641.2
659.144	662.8
659.563	679.2
659.982	668.4
660.38	655.8
660.8	660.6
661.219	674.8
661.617	668.4
662.037	655.6
662.457	677.4
662.855	641.6
663.275	693
663.695	664.6
664.094	652
664.514	666.2
664.934	659
665.333	668.6
665.753	652.6
666.152	653.8
666.572	646.8
666.993	676.4
667.392	648.8
667.812	652
668.212	657.4
668.632	675.6
669.053	657.8
669.453	662
669.874	662
670.273	665.4
670.694	646.6
671.116	671
671.515	668.8
671.937	659.4
672.337	656.6
672.758	656.2
673.158	668.2
673.58	652.8
673.98	660
674.402	678.4
674.824	657.6
675.224	662
675.646	657.2
676.047	653.6
676.469	653
676.869	670.2
677.292	671
677.693	651.8
678.115	655.4
678.516	659.2
678.939	664.8
679.34	668.2
679.762	674.8
680.164	668.6
680.586	656.8
680.988	666.6
681.411	691
681.812	648.6
682.236	663.2
682.637	654
683.061	649.8
683.462	662.8
683.864	648.8
684.288	665
684.69	649.2
685.114	672.6
685.516	670.4
685.94	656.2
686.342	663.8
686.766	648.4
687.168	642.8
687.571	679.8
687.995	658.2
688.398	648.6
688.822	656
689.225	684
689.628	668
690.052	651.2
690.456	665.4
690.88	653.6
691.284	655.6
691.687	663.4
692.112	649.4
692.515	657
692.919	661.6
693.344	671.4
693.747	658.4
694.173	655.8
694.577	673.6
694.98	664
695.406	650.6
695.81	669.6
696.214	670.8
696.64	662.6
697.044	663.2
697.448	669
697.874	667.6
698.279	651.4
698.684	648.8
699.11	643.4
699.514	657.2
699.919	656
700.324	644
700.75	662.6
701.156	659.2
701.561	668.8
701.987	664.4
702.393	672.6
702.798	672
703.203	665.6
703.63	656.8
704.036	656.4
704.442	661
704.847	656.4
705.274	660.4
705.68	662.6
706.086	666.6
706.492	652.2
706.92	661.2
707.326	666
707.732	654.4
708.139	656.4
708.545	653.4
708.973	652.2
709.38	650.8
709.786	651.4
710.193	682.6
710.6	660.2
711.028	652.8
711.435	663.4
711.842	671.8
712.249	654
712.656	664.6
713.064	665
713.492	649
713.9	656.8
714.307	664.8
714.715	661.8
715.123	665.4
715.53	665.2
715.938	663.8
716.367	661
716.775	654.2
717.184	645.2
717.592	653.8
718	669
718.408	690.6
718.816	718.2
719.225	652.8
719.633	650.6
720.042	653.8
720.472	647.8
720.881	688.4
721.29	665
721.699	645.2
722.108	666.6
722.517	672
722.926	644.8
723.335	668.2
723.744	653.8
724.154	662.6
724.563	658.6
724.973	661.6
725.382	664
725.792	647.8
726.202	646.2
726.612	683.6
727.022	654.4
727.432	651.6
779.813	653.6
780.223	699.6
780.634	650.4
781.044	654.8
781.454	661
781.865	678
782.276	644.2
782.686	670.8
783.097	655.8
783.508	659.8
783.919	661.2
784.33	672
784.741	666
785.152	650.8
785.563	642
785.974	655.2
786.386	669.2
786.776	651.8
787.188	656
787.599	641
788.011	657.8
788.423	658.6
788.835	652.8
789.247	650.6
789.659	651.8
790.071	648.2
790.483	700.6
790.874	652.4
791.286	663.2
791.699	655.6
792.111	656.6
792.524	654.2
792.937	655.4
793.349	645.6
793.741	656.2
794.154	643.6
794.567	677
794.98	653
795.393	634.6
795.785	670.8
796.198	656.4
796.612	659.6
797.026	652.6
797.439	645.4
797.831	655.6
798.245	645.6
798.659	648
799.073	662.4
799.487	651.2
799.88	654.8
800.294	655
800.708	659.2
801.123	659.6
801.516	677.2
801.93	647.2
802.345	642.8
802.76	652.8
803.153	667.8
803.568	681.8
803.983	664.2
804.377	663.2
804.792	651.6
805.207	651.2
805.601	652.6
806.016	697.6
806.432	657.8
806.826	692.6
807.242	671
807.658	663
808.052	652.6
808.468	645.8
808.884	657
809.279	653
809.695	673.6
810.111	681.4
810.506	660.4
810.922	682.2
811.339	655
811.734	670.6
812.151	659.2
812.546	649
812.963	648.8
813.38	659.2
813.776	672.8
814.193	683
814.589	651
815.006	654.4
815.402	642.4
815.82	653.2
816.237	649.8
816.633	660
817.051	656.2
817.448	653.6
817.866	648.4
818.262	680.2
818.68	648.2
819.077	650
819.495	649.2
819.892	702.4
820.311	650.8
820.708	659.6
821.127	647.2
821.524	667.6
821.943	660.8
822.34	676.4
822.759	655
823.157	660
823.576	674.6
823.974	658.6
824.393	778.6
824.791	648.4
825.189	647.4
825.609	657
826.007	652.8
826.427	647.2
826.826	653.4
827.246	662.8
827.644	630.8
828.043	668
828.463	653.8
828.862	669.6
829.261	662.4
829.682	647.2
830.081	666.8
830.502	649
830.901	666.2
831.301	653.2
831.722	641.2
832.121	660.4
832.521	654.8
832.943	651.4
833.342	656
833.742	638
834.164	657.6
834.564	651.6
834.965	658.4
835.386	660.2
835.787	658.4
836.188	644.4
836.588	652
837.01	654.6
837.411	641.4
837.812	672.8
838.213	659
838.636	653.8
839.037	733.8
839.438	658.2
839.84	660.2
840.263	664.2
840.664	656.8
841.066	655.2
841.468	665.6
841.891	655.4
842.293	666.8
842.695	666.4
843.098	663
843.5	641.2
843.902	656.4
844.326	662.8
844.729	657.2
845.131	666.4
845.534	661.4
845.937	662.6
846.34	685.2
846.764	646.4
847.167	668.8
847.571	643
847.974	654.6
848.377	651
848.781	707
849.184	673.6
849.588	654.8
849.992	646.2
850.396	659.2
850.821	674.2
851.225	662
851.63	653.4
852.034	673.8
852.438	656
852.843	790.2
853.247	648.4
853.652	651.4
854.057	675.6
854.462	660.4
854.867	658.6
855.272	689.4
855.677	662.2
856.082	644.6
856.487	646
856.893	659
857.298	656.2
