#lambda/nm	C1
208.295	536.4
208.67	491
209.045	450.4
209.419	453
209.794	686
210.169	654.6
210.544	804
210.919	692.6
211.295	679.6
211.67	683.4
212.045	683.6
212.421	687.8
212.796	721
213.172	676.2
213.547	674.2
213.923	677.8
214.299	676.8
214.675	681.2
215.051	693.8
215.427	696
215.803	710.8
216.179	689.8
216.555	674.4
216.932	690.6
217.308	678.6
217.684	686.4
218.061	694.4
218.438	680.4
218.814	683
219.191	692.6
219.568	685.8
219.945	676.8
220.322	695
220.699	692.8
221.076	692.4
221.453	692.4
221.83	678.8
222.208	683.4
222.585	677
222.962	685.6
223.34	684.8
223.717	683.6
224.095	681.2
224.473	675.2
224.851	678.2
225.229	668.6
225.607	714.4
225.985	671.8
226.363	689.2
226.741	690.2
227.119	682.4
227.497	704.8
227.876	665
228.254	695.8
228.633	698.2
229.011	692
229.39	681.2
229.769	687
230.148	695
230.527	705.8
230.905	686.2
231.284	683
231.664	679
232.043	694.6
232.422	693
232.801	674.2
233.181	697.2
233.56	681
233.94	686.8
234.319	666
234.699	685.4
235.079	724.2
235.458	718
235.838	693.6
236.218	665.6
236.598	665.8
236.978	668.8
237.358	672
237.738	677
238.119	675.6
238.499	666.8
238.88	672.2
239.26	697
239.641	670.2
240.021	680
240.402	674.4
240.783	667.6
241.163	679.4
241.544	688
241.925	681.2
242.306	691.6
242.687	669.2
243.069	683
243.45	689.2
243.831	677.2
244.212	674.8
244.594	730.4
244.975	685.2
245.357	688.4
245.739	677
246.12	687.6
246.502	696.4
246.884	676
247.266	680.6
247.648	690.2
248.03	712.4
248.412	696
248.794	686.4
249.176	680.6
249.559	694.6
249.941	685.2
250.323	676.8
250.706	683.6
251.089	680.6
251.471	691
251.854	683.2
252.237	684.8
252.62	701.2
253.002	682.8
253.385	690.2
253.769	702.6
254.152	677.4
254.535	696.4
254.918	671.4
255.301	683.4
255.685	683.6
256.068	674.6
256.452	712.6
256.835	693.2
257.219	681.2
257.603	696.2
257.986	675.2
258.37	683.6
258.754	668.8
259.138	696.8
259.522	697.8
259.906	684
260.29	685.4
260.675	690.8
261.059	689.6
261.443	668.8
261.828	696.2
262.212	688.8
262.597	673.2
262.981	677.8
263.366	690
263.751	685.4
264.136	678
264.521	678
264.906	669.2
265.291	704.4
265.676	683.2
266.061	691.6
266.446	702.6
266.831	684
267.217	708.2
267.602	690.2
267.987	695
268.373	681.4
268.759	695.4
269.144	697.8
269.53	681
269.916	687.2
270.302	688.4
270.688	695.2
271.074	693.8
271.46	700.8
271.846	726.6
272.232	683.4
272.618	684
273.004	679.6
273.391	705.4
273.777	705.4
274.164	696
274.55	700.8
274.937	683
275.324	680
275.71	694.8
276.097	698.4
276.484	676.6
276.871	687.2
277.258	690.8
277.645	677.4
278.032	681
278.419	684
278.807	704.2
279.194	674.6
279.581	671
279.969	683.6
280.356	687
280.744	681.6
281.131	717
281.519	695.2
281.907	679.8
282.295	682
282.682	707.8
283.07	691.6
283.458	704.2
283.846	708
284.235	705
284.623	701
285.011	688
285.399	692.4
285.788	688.2
286.176	682
286.565	696
286.953	688.2
287.342	682.2
287.731	677.6
288.119	676.6
288.508	679.4
288.897	682.4
289.286	674.6
289.675	684
290.064	692.6
290.453	683
290.821	683.2
291.21	710.2
291.599	675.4
291.989	683
292.378	684.4
292.768	705.6
293.157	681
293.547	695.2
293.936	679.8
294.326	681.8
294.716	685.8
295.106	681.2
295.496	697
295.886	705.6
296.276	683.8
296.666	680
297.056	685.4
297.446	674.4
297.836	704.2
298.227	681
298.617	687.6
299.008	697.8
299.398	677
299.789	678.4
300.179	701.6
300.57	706.2
300.961	682.4
301.352	684.6
301.742	698.8
302.133	693.6
302.524	688.2
302.915	687.6
303.307	678
303.698	693
304.089	699.4
304.48	684.4
304.872	692.8
305.263	689
305.655	684.4
306.046	698.4
306.438	696.6
306.829	686.2
307.221	708.8
307.613	691.4
308.005	697.2
308.397	707
308.789	719.2
309.181	716.2
309.573	707.6
309.965	697.6
310.357	676.6
310.749	709.6
311.142	679.8
311.534	683.8
311.926	687.6
312.319	690
312.711	682
313.104	703.2
313.497	682.6
313.889	731.4
314.282	706
314.675	705.8
315.068	691.2
315.461	690.6
315.854	723.6
316.247	704.2
316.64	685.2
317.033	685.6
317.405	703
317.798	691.4
318.192	694.2
318.585	689.2
318.979	695.6
319.372	685.6
319.766	690
320.16	697.8
320.553	704.2
320.947	721.2
321.341	688.2
321.735	692.2
322.129	676.6
322.523	721.4
322.917	679.4
323.311	705.2
323.705	687
324.099	687.2
324.494	708.8
324.888	704.8
325.282	697.8
325.677	702
326.071	694
326.466	704.2
326.861	697.2
327.255	699.2
327.65	707.6
328.045	711
328.44	696.6
328.835	694
329.23	685.8
329.625	709.6
330.02	677.6
330.415	713.4
330.81	684.2
331.206	697.4
331.601	680.6
331.996	699
332.37	719.4
332.766	671
333.161	720.8
333.557	675.2
333.953	690.8
334.348	1055.6
334.744	686.6
335.14	691.8
335.536	686.8
335.932	702.8
336.328	692.8
336.724	691
337.12	685.4
337.516	690.4
337.913	693
338.309	705.8
338.705	688.6
339.102	698.6
339.498	684.4
339.895	703.4
340.291	680.6
340.688	697.4
341.085	674.6
341.481	683.2
341.878	680.6
342.275	704
342.672	663.8
343.069	674
343.466	665.4
343.842	694
344.239	670.6
344.636	684.8
345.033	674.8
345.431	674
345.828	677.4
346.225	676.2
346.623	729.4
347.02	688.4
347.418	695.6
347.816	699.4
348.213	678.2
348.611	694.4
349.009	687.6
349.407	705.8
349.805	676.4
350.203	673.8
350.601	700.6
350.999	681.6
351.397	741.4
351.795	687
352.193	695.4
352.57	698
352.969	696.4
353.367	680.4
353.766	675.8
354.164	691
354.563	689
354.961	684.8
355.36	674.4
355.759	681.6
356.158	677.4
356.557	680.6
356.956	670.8
357.355	663.8
357.754	690.6
358.153	682.4
358.552	708.8
358.951	684.4
359.35	689
359.75	675.8
360.149	674.6
360.527	671.2
360.926	669.2
361.326	681.2
361.726	690.2
362.125	685.8
362.525	694
362.925	677
363.325	680.2
363.724	679.2
364.124	671.4
364.524	679.4
364.924	687
365.324	694.6
365.725	668.2
366.125	683.6
366.525	680.4
366.904	666.2
367.304	665
367.705	704.6
368.105	699
368.506	673.8
368.906	686.4
369.307	674.6
369.708	690.6
370.108	672.4
370.509	682.6
370.91	672.8
371.311	683
371.712	690.6
372.113	681.6
372.514	665
372.894	680.4
373.295	669.8
373.696	685.8
374.097	687.8
374.499	721.2
374.9	683
375.301	672.8
375.703	684.4
376.105	664.8
376.506	681.6
376.908	681.4
377.309	683.2
377.711	680.6
378.113	670
378.493	685.2
378.895	673.8
379.297	692.2
379.699	666.6
380.102	700.2
380.504	683.6
380.906	676
381.308	707.6
381.71	673.6
382.113	683.2
382.515	675
382.918	681
383.299	680.8
383.701	694.6
384.104	679.2
384.507	651.8
384.909	683.2
385.312	659.8
385.715	667.4
386.118	677
386.521	672
386.924	684.8
387.327	669.6
387.709	664
388.112	662.2
388.515	679.6
388.918	668.2
389.322	691.2
389.725	680
390.129	699.8
390.532	684.6
390.936	676.4
391.339	664
391.743	690
392.125	664.2
392.529	693.4
392.933	702.2
393.337	679.8
393.74	678.8
394.144	679.4
394.548	669.8
394.953	676.4
395.357	688
395.761	671
396.144	678
396.548	675.4
396.952	677.4
397.357	678.4
397.761	671.8
398.166	661.6
398.57	674.4
398.975	663
399.379	682
399.763	733.6
400.168	676.8
400.572	678
400.977	673
401.382	707
401.787	681.8
402.192	691.6
402.597	695.2
403.002	666.2
403.386	687.6
403.791	709.6
404.197	674.6
404.602	682.2
405.007	677
405.413	686
405.818	671.4
406.224	668
406.608	675.8
407.014	675.4
407.42	696.4
407.825	675.4
408.231	697.4
408.637	695.4
409.043	694.2
409.449	677.8
409.834	669
410.24	687.8
410.646	696
411.052	691.2
411.458	681
411.865	692.8
412.271	697.6
412.677	686.6
413.062	685
413.469	669.2
413.875	710.6
414.282	691
414.689	679.8
415.095	684.8
415.502	668.8
415.888	685.4
416.294	660.4
416.701	723.4
417.108	669
417.515	686.6
417.923	679.8
418.33	701.8
418.715	685
419.123	685.6
419.53	671.2
419.937	679.4
420.345	699.8
420.752	668.6
421.16	699.4
421.546	673.6
421.953	692.8
422.361	668.6
422.769	677
423.177	668.4
423.585	717.6
423.992	709.8
424.379	691.2
424.787	690.8
425.195	719.4
425.603	680
426.011	696.8
426.419	693.8
426.806	682.8
427.214	694
427.623	695.2
428.031	700.8
428.44	693.2
428.848	700.8
429.235	707
429.644	689.4
430.053	681.8
430.461	702.2
430.87	717
431.279	687.2
431.666	676
432.075	687.8
432.484	695.8
432.893	679
433.302	709.8
433.711	749.8
434.099	687
434.508	678.2
434.918	675.4
435.327	693.8
435.737	688
436.125	679.8
436.534	685.8
436.944	680.6
437.353	694.2
437.763	704.4
438.173	664
438.561	689.6
438.971	665
439.381	677.8
439.791	685
440.201	651.6
440.589	679
440.999	685.6
441.409	686
441.819	666.8
442.23	686.4
442.619	690.8
443.029	676.2
443.439	679.8
443.85	687.4
444.26	683.6
444.649	683.2
445.06	671.4
445.471	666.8
445.881	669.8
446.292	698.4
446.682	685.4
447.092	659.4
447.503	727.8
447.914	680.2
448.325	669.6
448.715	677.6
449.126	668.4
449.537	666.6
449.948	668.4
450.338	683.2
450.75	694.2
451.161	672.2
451.572	674
451.984	672.8
452.374	665.6
452.786	675.2
453.197	681.8
453.609	684.4
453.999	665
454.411	658.2
454.823	690.2
455.235	677.2
455.647	680.8
456.037	688
456.449	665.8
456.862	672.6
457.274	682
457.665	658
458.077	677.2
458.489	708.6
458.902	671.8
459.293	678.8
459.705	683.2
460.118	670.2
460.53	678.6
460.921	676.6
461.334	684.8
461.747	671.8
462.16	688.2
462.551	695
462.964	694.4
463.377	665
463.79	678
464.182	686
464.595	665.6
465.008	680.4
465.421	684.2
465.813	668.6
466.226	675.4
466.64	665.8
467.053	734.4
467.445	684.6
467.859	691.4
468.272	675.6
468.686	688.4
469.078	673
469.492	667.6
469.906	673.2
470.298	693
470.712	664.8
471.126	733.6
471.54	662.2
471.933	674
472.347	678.4
472.761	679.8
473.175	665.4
473.568	670.2
473.982	659
474.397	680
474.79	667
475.204	687.6
475.619	673.4
476.033	682.2
476.426	674.2
476.841	675.4
477.256	710.2
477.649	666.4
478.064	668.2
478.479	662.8
478.872	663
479.287	661.4
479.702	665
480.118	670.8
480.511	668.8
480.927	668
481.342	672.2
481.736	682.2
482.151	659.4
482.566	684
482.96	673.8
483.376	678.4
483.792	663.6
484.186	677.8
484.602	675.4
485.017	675.2
485.412	670
485.827	683.8
486.243	674.4
486.638	706.6
487.054	687.4
487.47	703.2
487.865	663.2
488.281	660
488.697	667.4
489.092	671.4
489.508	663.8
489.925	686.4
490.32	656
490.736	678
491.153	677.6
491.548	678.8
491.964	686
492.381	652.2
492.776	677
493.193	672.2
493.61	672.8
494.006	669
494.422	683.4
494.84	662.4
495.235	686.8
495.652	678.4
496.069	671.2
496.465	660.2
496.883	673.8
497.3	696.4
497.696	664
498.113	683.8
498.509	657.6
498.927	665.2
499.344	658.6
499.741	661
500.158	683.8
500.576	673.6
500.973	667.6
501.39	651.8
501.787	650.2
502.205	666.4
502.623	668
503.02	647.4
503.438	659.4
503.856	667.8
504.253	667
504.671	669
505.068	666.4
505.486	673.6
505.905	682.4
506.302	677
506.72	683.6
507.118	654.8
507.536	671.4
507.955	671.8
508.352	669.8
508.771	684.4
509.169	677
509.587	663.2
510.006	662.2
510.404	656.8
510.823	665
511.221	669.2
511.64	658.6
512.038	685.2
512.457	669.4
512.877	675.2
513.275	665.8
513.694	665.6
514.092	655.8
514.512	674
514.91	672.2
515.33	669.6
515.749	675
516.148	668.8
516.568	668.4
516.966	671.8
517.386	657.4
517.785	668.8
518.205	675
518.603	662.2
519.024	656.4
519.444	675.8
519.843	678.8
520.263	678
520.662	668.4
521.082	676.2
521.481	674.6
521.902	670.2
522.301	673.2
522.722	672.2
523.121	663.4
523.542	663
523.963	666.4
524.362	666.6
524.783	668.2
525.183	664.2
525.604	667.2
526.003	661
526.425	657.2
526.824	676.8
527.246	672.8
527.646	681.2
528.067	668.6
528.467	668.6
528.888	677.4
529.289	668.4
529.71	656.8
530.11	670.4
530.532	663.6
530.932	665
531.354	662.4
531.755	706.2
532.176	676.2
532.577	662.8
532.999	664.8
533.4	660.6
533.822	671.2
534.223	666
534.645	671.4
535.046	661.2
535.468	666.4
535.869	676.4
536.292	665.2
536.693	712.8
537.115	671
537.516	652
537.939	652.2
538.34	682.6
538.742	683
539.165	671.2
539.566	664.8
539.989	654.8
540.391	661.2
540.814	674
541.216	666
541.639	671.2
542.041	675.4
542.464	656.8
542.866	657.6
543.268	643.4
543.691	670.8
544.093	678.2
544.517	691.4
544.919	661.2
545.343	691
545.745	655.4
546.147	663.2
546.571	661.2
546.974	656.8
547.398	665
547.8	679
548.224	657.8
548.627	659.4
549.03	670.6
549.454	646.2
549.857	649.4
550.281	658
550.684	661.4
551.087	668.8
551.512	668.2
551.915	663
552.34	667
552.743	646.6
553.146	663.8
553.571	663.2
553.975	679.4
554.399	652.4
554.803	715.8
555.207	663.4
555.632	656.2
556.036	674
556.461	658.6
556.865	667.4
557.268	655.6
557.694	660.2
558.098	668.2
558.502	664.8
558.927	655.8
559.332	667.8
559.736	659.6
560.162	670.8
560.566	668
560.992	672.8
561.396	663.6
561.801	661.4
562.227	667.2
562.631	660.8
563.036	661.2
563.462	675.8
563.867	672.2
564.272	653
564.698	679.6
565.103	648.6
565.508	687.6
565.935	660.8
566.34	666.4
566.745	686.4
567.172	669.6
567.577	691.2
567.982	685.2
568.409	663.4
568.815	662
569.22	665.8
569.626	677
570.053	646.4
570.459	672.2
570.865	671
571.292	669.4
571.698	671.4
572.104	655.4
572.531	658.4
572.937	678.2
573.343	667
573.75	665.6
574.177	659.2
574.583	668.4
574.99	662
575.396	671.6
575.824	656.4
576.231	675.6
576.637	654.4
577.065	698.8
577.472	660.4
577.879	667
578.286	673.4
578.714	657
579.121	668.2
579.528	669.4
579.935	666.2
580.364	663.6
580.771	643.4
581.178	657
581.585	668.2
582.014	670.6
582.421	656.4
582.829	659.6
583.236	677
583.644	662.4
584.073	660
584.481	666.6
584.889	653.6
585.296	673.4
585.726	670.4
586.134	653.4
586.542	659.4
586.95	680.8
587.358	652.6
587.787	667.2
588.196	651.4
588.604	660.6
589.012	669
589.421	652.4
589.851	661.2
590.259	675.6
590.668	653
591.076	709.2
591.485	660
591.894	664.2
592.324	679.2
592.733	680.8
593.142	652.8
593.551	655.8
593.96	699
594.369	652.8
594.8	653.6
595.209	658.4
595.618	651.6
596.028	665
596.437	657.4
596.847	661.8
597.256	656.6
597.687	669.2
598.097	662.4
598.507	657.4
598.917	666.6
599.327	672.2
599.736	669
600.146	673.4
600.556	664.2
600.988	677
601.398	663.8
601.808	678.6
602.219	649
602.629	662.4
603.039	664.8
603.45	683.6
603.86	661.6
604.271	682.2
604.703	664.4
605.114	658.8
605.525	663.2
605.935	670.2
606.346	688.6
606.757	667
607.168	662
607.579	661.8
607.99	672.4
608.402	668.2
608.813	668.8
609.224	658.8
609.636	652
610.047	654.4
610.48	668
610.892	670.6
611.303	677.2
611.715	667.6
612.127	657
612.539	660
612.95	660.2
613.362	654.6
613.774	649.8
614.186	656.2
614.599	654.6
615.011	673.8
615.423	665
615.835	652.8
616.248	640.6
616.66	674.6
617.073	648.8
617.485	666.6
617.898	671
618.311	667.6
618.723	662.6
619.136	686.4
619.549	676.4
619.962	688.4
620.375	664
620.788	670.2
621.201	656.6
621.614	670.8
622.028	660.6
622.441	663.4
622.854	676.8
623.268	662.2
623.681	665
624.095	655.4
624.509	671.2
624.922	666.2
625.336	653.4
625.728	664
626.142	655.2
626.556	669.6
626.97	662.6
627.384	641
627.799	662
628.213	666.4
628.627	654.2
629.041	656.2
629.456	660.4
629.87	666.4
630.285	665.4
630.699	662.6
631.093	660.4
631.507	666.2
631.922	662.6
632.337	680
632.752	649.8
633.167	658.8
633.582	657.6
633.997	661.8
634.412	659.2
634.806	662.2
635.221	647.2
635.637	676
636.052	652.6
636.468	665.2
636.883	685.8
637.299	653.6
637.715	640.2
638.109	661.2
638.525	654.6
638.941	676
639.357	670.4
639.773	676.6
640.189	648.8
640.584	663.6
641	661.4
641.416	653.2
641.832	671.4
642.249	652.6
642.665	658.8
643.06	666.8
643.477	674
643.894	646.6
644.31	666
644.727	657.8
645.123	663.8
645.54	651.6
645.957	653.6
646.374	670.2
646.77	662.2
647.187	696.2
647.604	657.2
648.021	650.8
648.439	652.6
648.835	660.2
649.252	661.6
649.67	661
650.088	660.8
650.484	657.8
650.902	664.8
651.32	666.8
651.738	658.2
652.134	653.4
652.552	674.2
652.971	655.2
653.389	650
653.786	671
654.204	678.6
654.622	642.2
655.019	656.8
655.438	660
655.857	654
656.275	661.6
656.673	644
657.091	736.2
657.51	652.8
657.908	670
658.327	674
658.746	643.8
659.144	653.2
659.563	670.8
659.982	667.2
660.38	653.6
660.8	661.2
661.219	677.6
661.617	670.8
662.037	657
662.457	674.2
662.855	648.2
663.275	693.2
663.695	661.6
664.094	661
664.514	658.4
664.934	645.4
665.333	671.8
665.753	659.2
666.152	650.6
666.572	659
666.993	682.6
667.392	653.2
667.812	653.8
668.212	646
668.632	675.2
669.053	652.8
669.453	670
669.874	668.2
670.273	660.8
670.694	656
671.116	677.8
671.515	673.2
671.937	656.4
672.337	663.2
672.758	659
673.158	668.2
673.58	646
673.98	662
674.402	675
674.824	655.8
675.224	660.6
675.646	650.6
676.047	650.6
676.469	663.4
676.869	673.2
677.292	661.2
677.693	660.2
678.115	653.2
678.516	671.2
678.939	668.4
679.34	659.4
679.762	668.2
680.164	663.2
680.586	648.8
680.988	663.4
681.411	682.4
681.812	657.8
682.236	652.6
682.637	652
683.061	651.4
683.462	668.6
683.864	655
684.288	668
684.69	658.4
685.114	674.2
685.516	666.4
685.94	653.6
686.342	662.4
686.766	653.6
687.168	653.8
687.571	682
687.995	663.6
688.398	648
688.822	651.2
689.225	684.2
689.628	681
690.052	662
690.456	663.4
690.88	654.4
691.284	648.8
691.687	666.6
692.112	648.2
692.515	653.4
692.919	645.2
693.344	666.2
693.747	652
694.173	657.4
694.577	671.6
694.98	656.6
695.406	653.6
695.81	665.8
696.214	668.4
696.64	664.4
697.044	658.6
697.448	674.2
697.874	662.6
698.279	665.8
698.684	653
699.11	655.2
699.514	659.4
699.919	655.2
700.324	651.8
700.75	654.4
701.156	660.6
701.561	675
701.987	665.2
702.393	672.6
702.798	666.4
703.203	658.2
703.63	655.6
704.036	660.2
704.442	667.4
704.847	646
705.274	649.4
705.68	656.8
706.086	671.8
706.492	651.8
706.92	657
707.326	669.6
707.732	648.4
708.139	645.8
708.545	644.2
708.973	645.8
709.38	661
709.786	645
710.193	674.4
710.6	656.2
711.028	647.2
711.435	656.4
711.842	659.6
712.249	645.2
712.656	656.2
713.064	672.8
713.492	644
713.9	654.6
714.307	669.4
714.715	657.8
715.123	660.4
715.53	667.4
715.938	656.2
716.367	662.6
716.775	656.2
717.184	646.2
717.592	651
718	674.8
718.408	693.6
718.816	707
719.225	655.2
719.633	662.2
720.042	657.4
720.472	658.8
720.881	684
721.29	662.6
721.699	652.2
722.108	657.4
722.517	653.8
722.926	662.4
723.335	665.4
723.744	651.6
724.154	649.8
724.563	658.8
724.973	665.8
725.382	659.6
725.792	659.2
726.202	650.4
726.612	679.8
727.022	654.4
727.432	649.2
779.813	657
780.223	705.8
780.634	654.2
781.044	646.6
781.454	653.2
781.865	659.8
782.276	654.6
782.686	670.6
783.097	654.6
783.508	648.8
783.919	656
784.33	666.8
784.741	669.6
785.152	646.2
785.563	639.6
785.974	645.8
786.386	659.8
786.776	651.6
787.188	656.4
787.599	652.6
788.011	664.2
788.423	657.6
788.835	648.8
789.247	640.6
789.659	643.2
790.071	651.6
790.483	697.2
790.874	647.8
791.286	662.6
791.699	654.4
792.111	648
792.524	657.2
792.937	652
793.349	652
793.741	644.6
794.154	650
794.567	671
794.98	655.2
795.393	642.2
795.785	671
796.198	662.4
796.612	658.8
797.026	659.2
797.439	641
797.831	654.4
798.245	649.4
798.659	653.6
799.073	647.8
799.487	650.4
799.88	658
800.294	651.2
800.708	657.2
801.123	651.4
801.516	677.4
801.93	649.8
802.345	634.4
802.76	648.8
803.153	675.8
803.568	663.6
803.983	667
804.377	651.4
804.792	639.8
805.207	636.6
805.601	660
806.016	687.2
806.432	646.6
806.826	684.6
807.242	665.2
807.658	658
808.052	648.8
808.468	657.8
808.884	642.2
809.279	654.2
809.695	663.2
810.111	677.6
810.506	651.8
810.922	672
811.339	635
811.734	653.8
812.151	646.8
812.546	636.2
812.963	645.6
813.38	650.2
813.776	655.8
814.193	680
814.589	648.4
815.006	647.2
815.402	649.4
815.82	653.8
816.237	650
816.633	664.2
817.051	641.8
817.448	658
817.866	645.2
818.262	666.6
818.68	659.4
819.077	648.2
819.495	660.8
819.892	694
820.311	648.6
820.708	645.8
821.127	654.8
821.524	663.2
821.943	664.8
822.34	677.6
822.759	661.2
823.157	658.8
823.576	670
823.974	668.2
824.393	778.8
824.791	646.6
825.189	648.4
825.609	649.4
826.007	654.4
826.427	637
826.826	650
827.246	662.8
827.644	632.8
828.043	663
828.463	648.2
828.862	664.8
829.261	667.2
829.682	636.4
830.081	654.2
830.502	639.6
830.901	661.2
831.301	650
831.722	650.6
832.121	652.8
832.521	646.2
832.943	650.8
833.342	653
833.742	641.4
834.164	654.8
834.564	646.4
834.965	660
835.386	644
835.787	654.8
836.188	654.4
836.588	653.6
837.01	657
837.411	634.2
837.812	654.4
838.213	654.6
838.636	654
839.037	741.2
839.438	659.6
839.84	655.8
840.263	662
840.664	660.2
841.066	657.4
841.468	658.2
841.891	654.2
842.293	666
842.695	659
843.098	663
843.5	643.4
843.902	663.2
844.326	657
844.729	651
845.131	674.2
845.534	657
845.937	671
846.34	682.4
846.764	644.4
847.167	645.4
847.571	653
847.974	650.8
848.377	654
848.781	708
849.184	658.2
849.588	642.6
849.992	661.4
850.396	659.2
850.821	673
851.225	659.6
851.63	650.6
852.034	665.8
852.438	655
852.843	703.4
853.247	642.2
853.652	644.8
854.057	675.2
854.462	657.2
854.867	659.6
855.272	688.4
855.677	662.8
856.082	649
856.487	640.6
856.893	658.4
857.298	648.4
