#lambda/nm	C1
208.295	542
208.67	497
209.045	457.8
209.419	454.2
209.794	693.4
210.169	663.2
210.544	812
210.919	697.2
211.295	679
211.67	689.6
212.045	690.2
212.421	689.8
212.796	731
213.172	678.8
213.547	680.8
213.923	680.6
214.299	684.2
214.675	695.6
215.051	684.2
215.427	695.4
215.803	697.4
216.179	684.4
216.555	673.6
216.932	695.4
217.308	685.2
217.684	692.2
218.061	689.6
218.438	692.6
218.814	678.6
219.191	698.4
219.568	676.4
219.945	686.4
220.322	687.8
220.699	697
221.076	694.4
221.453	697
221.83	677
222.208	682.2
222.585	680.2
222.962	689
223.34	689.8
223.717	686
224.095	688.4
224.473	690.8
224.851	685.4
225.229	673
225.607	702.6
225.985	678.2
226.363	688.6
226.741	689
227.119	693.2
227.497	700.2
227.876	677.6
228.254	688.8
228.633	693.2
229.011	695
229.39	689.8
229.769	687.2
230.148	692.4
230.527	711.6
230.905	683.6
231.284	679.2
231.664	679.2
232.043	701.8
232.422	688
232.801	684.4
233.181	693.4
233.56	689.8
233.94	690.8
234.319	681.4
234.699	686.8
235.079	736.4
235.458	722.2
235.838	706
236.218	680.4
236.598	672.4
236.978	681
237.358	686.4
237.738	685
238.119	698
238.499	671.4
238.88	687.6
239.26	713.4
239.641	681.6
240.021	686.8
240.402	675.4
240.783	689.4
241.163	679.6
241.544	692.2
241.925	685.2
242.306	696.2
242.687	685
243.069	686.6
243.45	694.8
243.831	678
244.212	675.4
244.594	725.6
244.975	696
245.357	693
245.739	677.2
246.12	686.2
246.502	695.6
246.884	689.4
247.266	680
247.648	696.8
248.03	706.8
248.412	687.2
248.794	690
249.176	684
249.559	701.2
249.941	678.6
250.323	677
250.706	680.4
251.089	683.2
251.471	697
251.854	675.2
252.237	692.6
252.62	699.2
253.002	690.4
253.385	689.2
253.769	710.4
254.152	688.2
254.535	698.2
254.918	682.8
255.301	686
255.685	686.8
256.068	683
256.452	719.6
256.835	698.4
257.219	700.4
257.603	697.6
257.986	674.2
258.37	690.6
258.754	678.2
259.138	698.8
259.522	698
259.906	692.8
260.29	691
260.675	678.4
261.059	691.4
261.443	672.4
261.828	689.8
262.212	693.2
262.597	683.8
262.981	692.4
263.366	693.6
263.751	693.4
264.136	679
264.521	691.2
264.906	676.6
265.291	696.8
265.676	679
266.061	693
266.446	707
266.831	688.4
267.217	701
267.602	688.8
267.987	696.2
268.373	675
268.759	703.2
269.144	690.4
269.53	689.4
269.916	673.8
270.302	680.2
270.688	693.4
271.074	689
271.46	704.4
271.846	722.6
272.232	689
272.618	674.8
273.004	677.6
273.391	705.8
273.777	698
274.164	693.4
274.55	703.2
274.937	700.4
275.324	682
275.71	695.2
276.097	708
276.484	689.4
276.871	687.6
277.258	686.8
277.645	673.4
278.032	681.4
278.419	678.8
278.807	694.4
279.194	679.6
279.581	683.8
279.969	699.4
280.356	686.2
280.744	688.4
281.131	720.8
281.519	701.6
281.907	681.8
282.295	685.2
282.682	700.4
283.07	696.8
283.458	700.2
283.846	699.8
284.235	693.8
284.623	694.2
285.011	676.8
285.399	689.2
285.788	690.2
286.176	679
286.565	698
286.953	691.6
287.342	681.6
287.731	677.2
288.119	672.6
288.508	688.6
288.897	690
289.286	677.6
289.675	682
290.064	707.8
290.453	684.2
290.821	684.4
291.21	709
291.599	677.6
291.989	690.4
292.378	699.8
292.768	707.8
293.157	698.4
293.547	692.2
293.936	683.2
294.326	686.8
294.716	685.2
295.106	692.2
295.496	701.2
295.886	700.4
296.276	688.6
296.666	683
297.056	689.6
297.446	685.2
297.836	715.8
298.227	685
298.617	689.8
299.008	712.2
299.398	688.4
299.789	677.2
300.179	697
300.57	709.4
300.961	692.2
301.352	681.2
301.742	695.8
302.133	693.2
302.524	694.4
302.915	689
303.307	687.4
303.698	696
304.089	694.4
304.48	685.4
304.872	690.4
305.263	690.2
305.655	685.6
306.046	690.8
306.438	700.4
306.829	690
307.221	708.2
307.613	697
308.005	701
308.397	701.6
308.789	716.2
309.181	722.2
309.573	711
309.965	701.8
310.357	691.2
310.749	708.8
311.142	681.6
311.534	686.2
311.926	695.2
312.319	699.6
312.711	685
313.104	708
313.497	687.4
313.889	741
314.282	717.4
314.675	722.8
315.068	697.4
315.461	703.6
315.854	727.2
316.247	691.6
316.64	685.8
317.033	693
317.405	698.8
317.798	689.2
318.192	697.2
318.585	685.8
318.979	685.6
319.372	689
319.766	685.8
320.16	706.4
320.553	702.4
320.947	713.2
321.341	679.8
321.735	688.4
322.129	673.8
322.523	723.4
322.917	684.2
323.311	713.8
323.705	694.2
324.099	700
324.494	710.8
324.888	702.8
325.282	687.8
325.677	706
326.071	698
326.466	701.4
326.861	709.6
327.255	709.8
327.65	712.4
328.045	715.6
328.44	694
328.835	693.8
329.23	691
329.625	715.6
330.02	685.8
330.415	725.2
330.81	694.8
331.206	697.8
331.601	683.4
331.996	699.8
332.37	717.2
332.766	682.2
333.161	724.2
333.557	692.2
333.953	693.2
334.348	1053.6
334.744	690.4
335.14	686
335.536	696.4
335.932	705.6
336.328	688.8
336.724	706
337.12	685.6
337.516	698.6
337.913	694.8
338.309	708.6
338.705	690.6
339.102	695.4
339.498	688.8
339.895	714
340.291	687.6
340.688	707.2
341.085	687.6
341.481	693.8
341.878	688
342.275	711.8
342.672	684.2
343.069	687.2
343.466	680.2
343.842	700.6
344.239	682.8
344.636	698.8
345.033	682.4
345.431	690.6
345.828	695.4
346.225	687.8
346.623	721.4
347.02	690.2
347.418	703.6
347.816	703
348.213	682
348.611	699.8
349.009	693.6
349.407	703.4
349.805	679.6
350.203	678.4
350.601	700.2
350.999	684
351.397	742.4
351.795	688.8
352.193	700.2
352.57	694.8
352.969	700.4
353.367	669
353.766	679.2
354.164	680.4
354.563	694.8
354.961	691.6
355.36	682.4
355.759	689.6
356.158	680.6
356.557	688.4
356.956	674.6
357.355	681.4
357.754	687
358.153	690.2
358.552	714.8
358.951	686.8
359.35	691
359.75	686.6
360.149	675.6
360.527	674.8
360.926	675.8
361.326	690.6
361.726	689.4
362.125	672.8
362.525	698.6
362.925	695.8
363.325	686
363.724	693
364.124	673.6
364.524	679.2
364.924	674.8
365.324	706
365.725	666.8
366.125	683.2
366.525	688.4
366.904	678.4
367.304	671.6
367.705	705
368.105	692.2
368.506	688.8
368.906	685.6
369.307	682.2
369.708	689.4
370.108	679.6
370.509	696
370.91	679
371.311	685.6
371.712	677.6
372.113	675
372.514	676.6
372.894	677.6
373.295	673.4
373.696	684.6
374.097	692.4
374.499	708.4
374.9	681.8
375.301	668
375.703	684.6
376.105	668
376.506	683
376.908	686.2
377.309	672.6
377.711	683
378.113	673.6
378.493	680
378.895	675.6
379.297	687.4
379.699	662.6
380.102	684
380.504	686.2
380.906	674.2
381.308	717.6
381.71	690.8
382.113	681.4
382.515	682.6
382.918	682.8
383.299	688.2
383.701	696.4
384.104	684.8
384.507	668
384.909	680.2
385.312	665.2
385.715	669.2
386.118	675
386.521	662.6
386.924	688.2
387.327	671.4
387.709	667.4
388.112	655.2
388.515	677.6
388.918	678.8
389.322	682.8
389.725	674.6
390.129	695.4
390.532	690.2
390.936	675.6
391.339	676
391.743	671.8
392.125	673.6
392.529	687.4
392.933	682.4
393.337	675.2
393.74	682.2
394.144	680.6
394.548	673.4
394.953	678.8
395.357	683
395.761	674
396.144	679.4
396.548	684.2
396.952	676.2
397.357	683
397.761	676
398.166	682.6
398.57	672.8
398.975	672.8
399.379	681.4
399.763	728
400.168	679
400.572	677
400.977	679.6
401.382	702
401.787	699.2
402.192	703.4
402.597	707.2
403.002	668.8
403.386	693.8
403.791	708
404.197	674
404.602	687.8
405.007	679
405.413	674.2
405.818	690.2
406.224	675.4
406.608	681.6
407.014	673.4
407.42	704.2
407.825	675.8
408.231	694.8
408.637	695.2
409.043	704.8
409.449	677.6
409.834	674.8
410.24	683.8
410.646	695.8
411.052	697.8
411.458	691.4
411.865	685.6
412.271	703.6
412.677	677.8
413.062	687.8
413.469	671.4
413.875	718.8
414.282	693.4
414.689	683.4
415.095	693.6
415.502	674.8
415.888	692.6
416.294	661.2
416.701	737
417.108	670.4
417.515	699.2
417.923	682.6
418.33	710
418.715	696.6
419.123	683.6
419.53	687.8
419.937	687.2
420.345	704.6
420.752	680
421.16	702.2
421.546	686.4
421.953	691
422.361	681.4
422.769	691.4
423.177	677.2
423.585	716.6
423.992	706.8
424.379	697.2
424.787	697.2
425.195	706.6
425.603	693.2
426.011	702
426.419	701.6
426.806	685.4
427.214	685
427.623	688.8
428.031	698.8
428.44	688
428.848	701
429.235	702.2
429.644	685
430.053	683.6
430.461	702.6
430.87	710.2
431.279	698.8
431.666	683
432.075	685
432.484	694.6
432.893	683.2
433.302	715.6
433.711	748.2
434.099	689.2
434.508	686.2
434.918	683.6
435.327	691.6
435.737	692
436.125	688.8
436.534	688.6
436.944	684.8
437.353	689
437.763	709.6
438.173	674.6
438.561	698
438.971	670.4
439.381	681.2
439.791	685.2
440.201	661.8
440.589	686.4
440.999	693
441.409	693
441.819	667.2
442.23	698.6
442.619	695.4
443.029	675.2
443.439	686.2
443.85	697.4
444.26	701.2
444.649	684.2
445.06	683.6
445.471	676.8
445.881	675
446.292	699.2
446.682	707.4
447.092	662.2
447.503	733
447.914	680.4
448.325	683
448.715	686.2
449.126	680.4
449.537	675.2
449.948	686.6
450.338	681
450.75	691.4
451.161	683.2
451.572	686.6
451.984	676.4
452.374	662.6
452.786	678.8
453.197	691.4
453.609	683
453.999	663.6
454.411	670.8
454.823	688.6
455.235	674.4
455.647	677.8
456.037	688.2
456.449	654.8
456.862	684.4
457.274	683
457.665	665
458.077	686.6
458.489	716.2
458.902	676.6
459.293	681
459.705	679.6
460.118	675.8
460.53	676.4
460.921	680.8
461.334	683.4
461.747	679.2
462.16	691.2
462.551	703.6
462.964	681.2
463.377	664
463.79	667.6
464.182	688
464.595	675.2
465.008	682.4
465.421	691.2
465.813	676.2
466.226	682
466.64	666.8
467.053	729.8
467.445	691.6
467.859	696.4
468.272	688
468.686	682.4
469.078	681.4
469.492	660.2
469.906	682.4
470.298	689
470.712	671
471.126	746.8
471.54	655
471.933	672.8
472.347	675.2
472.761	665
473.175	668.4
473.568	669.2
473.982	667.8
474.397	675.6
474.79	676.2
475.204	687.8
475.619	678.8
476.033	682.2
476.426	670
476.841	666.6
477.256	697
477.649	667.8
478.064	662.8
478.479	663.6
478.872	667.8
479.287	657.6
479.702	666.6
480.118	667.4
480.511	668.4
480.927	669
481.342	669.2
481.736	676.2
482.151	661
482.566	679.4
482.96	676
483.376	690.6
483.792	666
484.186	670.6
484.602	674
485.017	673.8
485.412	676.2
485.827	682.8
486.243	675.4
486.638	701
487.054	676.6
487.47	681.2
487.865	670.4
488.281	666.2
488.697	664.4
489.092	667.8
489.508	668.4
489.925	683
490.32	654.6
490.736	678.2
491.153	680.4
491.548	677.6
491.964	696
492.381	661.2
492.776	679.4
493.193	682.6
493.61	680.8
494.006	677
494.422	683.2
494.84	668
495.235	688.8
495.652	672.2
496.069	675.6
496.465	654.6
496.883	670.6
497.3	699.6
497.696	660.2
498.113	682.2
498.509	658
498.927	661.6
499.344	655.4
499.741	666.8
500.158	685
500.576	688.2
500.973	679.2
501.39	667
501.787	652.8
502.205	680.2
502.623	663.4
503.02	661.6
503.438	668.2
503.856	671.8
504.253	677.6
504.671	680.2
505.068	671.4
505.486	669.2
505.905	688.2
506.302	673.8
506.72	686.6
507.118	668.8
507.536	663.8
507.955	669
508.352	672.8
508.771	673.6
509.169	676.2
509.587	667.2
510.006	670.4
510.404	668.4
510.823	666.2
511.221	679.6
511.64	672.8
512.038	688.4
512.457	675.8
512.877	673
513.275	675.2
513.694	675.8
514.092	667.8
514.512	675.4
514.91	671.8
515.33	674.4
515.749	677.6
516.148	671.6
516.568	678.2
516.966	671.2
517.386	671.6
517.785	674.8
518.205	668.4
518.603	667.4
519.024	663
519.444	677.6
519.843	675.2
520.263	684.6
520.662	675
521.082	668.2
521.481	675.4
521.902	668.2
522.301	675.6
522.722	679
523.121	672.4
523.542	667.6
523.963	675
524.362	679.6
524.783	680.2
525.183	674.2
525.604	672.2
526.003	661.2
526.425	662.6
526.824	684
527.246	678.4
527.646	686.6
528.067	668
528.467	669.2
528.888	668.8
529.289	676.4
529.71	672.8
530.11	665
530.532	664.4
530.932	663
531.354	662.4
531.755	709.6
532.176	681.2
532.577	665.8
532.999	663.8
533.4	660.4
533.822	680
534.223	675
534.645	654.8
535.046	668.8
535.468	670.6
535.869	687.2
536.292	669.6
536.693	712
537.115	675.6
537.516	663.2
537.939	670
538.34	689.4
538.742	683.2
539.165	678.8
539.566	666.4
539.989	664.8
540.391	669.8
540.814	671.4
541.216	674.6
541.639	668.8
542.041	684.4
542.464	664
542.866	657.2
543.268	651.8
543.691	672.4
544.093	675.8
544.517	689.2
544.919	660.6
545.343	692.4
545.745	665.2
546.147	678.6
546.571	660.2
546.974	664
547.398	672
547.8	683.6
548.224	671.2
548.627	659.2
549.03	678.2
549.454	658
549.857	662.4
550.281	656.8
550.684	662.6
551.087	677.8
551.512	685
551.915	680
552.34	663.4
552.743	658
553.146	670
553.571	661
553.975	689.8
554.399	662.6
554.803	728.8
555.207	660.4
555.632	660.4
556.036	677
556.461	667.8
556.865	667.8
557.268	663.6
557.694	659.8
558.098	678.2
558.502	666
558.927	667.6
559.332	665
559.736	667.4
560.162	665.8
560.566	670
560.992	676.6
561.396	665.8
561.801	666.4
562.227	668
562.631	667.2
563.036	671
563.462	673.8
563.867	674.4
564.272	653
564.698	671
565.103	657.6
565.508	686.2
565.935	670.6
566.34	670.8
566.745	681.4
567.172	665
567.577	688
567.982	678.4
568.409	672.2
568.815	659.4
569.22	675.8
569.626	681
570.053	654
570.459	668.8
570.865	679.6
571.292	670.2
571.698	667
572.104	660.4
572.531	660
572.937	687.2
573.343	671.2
573.75	656.6
574.177	666.6
574.583	678
574.99	670.6
575.396	672.6
575.824	660.2
576.231	674
576.637	663
577.065	696.8
577.472	666.6
577.879	658.4
578.286	676.4
578.714	663.6
579.121	665
579.528	668
579.935	676.2
580.364	671.6
580.771	644
581.178	661.2
581.585	660.8
582.014	665.6
582.421	660.6
582.829	655
583.236	670.8
583.644	651
584.073	667.8
584.481	664.6
584.889	661.6
585.296	680.2
585.726	663
586.134	662.2
586.542	665.6
586.95	678
587.358	659
587.787	660.2
588.196	650.4
588.604	658.4
589.012	671
589.421	650
589.851	661.2
590.259	664.4
590.668	668.4
591.076	708.4
591.485	659.2
591.894	663.6
592.324	681.2
592.733	681
593.142	648
593.551	658.6
593.96	670.6
594.369	651
594.8	648.8
595.209	668.2
595.618	643.4
596.028	658
596.437	646.4
596.847	657.4
597.256	672.4
597.687	671
598.097	663.4
598.507	651.6
598.917	661.4
599.327	677.4
599.736	668.6
600.146	672.6
600.556	672
600.988	677
601.398	658.4
601.808	672
602.219	646.8
602.629	666
603.039	666
603.45	700
603.86	663
604.271	675.4
604.703	662.4
605.114	664.6
605.525	664.8
605.935	670.6
606.346	686.8
606.757	675.2
607.168	663.4
607.579	659.4
607.99	675.8
608.402	667.6
608.813	670
609.224	656.8
609.636	653.8
610.047	666.2
610.48	661.6
610.892	674
611.303	678.4
611.715	664.2
612.127	655.6
612.539	665.6
612.95	675.4
613.362	654.6
613.774	662.6
614.186	658.6
614.599	657.4
615.011	668.8
615.423	662.6
615.835	659.2
616.248	644.2
616.66	671.4
617.073	651.6
617.485	662.4
617.898	678.8
618.311	663.8
618.723	660.8
619.136	697.2
619.549	681
619.962	695.8
620.375	662.6
620.788	667.8
621.201	665
621.614	672.6
622.028	665.4
622.441	663.4
622.854	683.8
623.268	658.2
623.681	674.4
624.095	659.6
624.509	675.4
624.922	672.4
625.336	653.8
625.728	656
626.142	671.6
626.556	679.2
626.97	676.4
627.384	659.2
627.799	660.4
628.213	685.2
628.627	665.6
629.041	664
629.456	667
629.87	658.2
630.285	669.4
630.699	673.2
631.093	652.8
631.507	662.2
631.922	674.8
632.337	675.6
632.752	658
633.167	663.6
633.582	659.2
633.997	658.2
634.412	655.6
634.806	656.8
635.221	654.6
635.637	674.4
636.052	655.8
636.468	659.2
636.883	679.6
637.299	656
637.715	647
638.109	670
638.525	647.8
638.941	671.4
639.357	671.8
639.773	683.2
640.189	650.6
640.584	666.4
641	661.6
641.416	648.4
641.832	658.2
642.249	662
642.665	675
643.06	665.4
643.477	676.2
643.894	654.4
644.31	668.6
644.727	660.6
645.123	671.6
645.54	653.4
645.957	667
646.374	678.8
646.77	671
647.187	692.8
647.604	660
648.021	643.8
648.439	652.6
648.835	664.4
649.252	671.4
649.67	663.2
650.088	666.2
650.484	662.6
650.902	672.4
651.32	667.8
651.738	664.2
652.134	671
652.552	684.4
652.971	673.6
653.389	662.6
653.786	677.2
654.204	683.8
654.622	657.4
655.019	668.8
655.438	672.4
655.857	666.4
656.275	665.4
656.673	654.2
657.091	752
657.51	663.8
657.908	671.2
658.327	679.2
658.746	650
659.144	663.2
659.563	674.4
659.982	673.4
660.38	652.6
660.8	670
661.219	672.8
661.617	661.4
662.037	663.6
662.457	670.6
662.855	647.2
663.275	696.4
663.695	664
664.094	662
664.514	661
664.934	647.6
665.333	658.2
665.753	655.6
666.152	643.6
666.572	659.8
666.993	674.4
667.392	658.8
667.812	658.6
668.212	663.2
668.632	672.4
669.053	659.4
669.453	669
669.874	662.4
670.273	657.6
670.694	661
671.116	679.4
671.515	672.4
671.937	653.2
672.337	662.2
672.758	651.6
673.158	673
673.58	650
673.98	656.8
674.402	673.8
674.824	662.6
675.224	657.6
675.646	650.4
676.047	659.2
676.469	667.4
676.869	670.8
677.292	674.6
677.693	655.4
678.115	654.2
678.516	673
678.939	669
679.34	663.2
679.762	671.6
680.164	666
680.586	660.2
680.988	663.4
681.411	688.8
681.812	657.8
682.236	650.6
682.637	650.8
683.061	652.6
683.462	664.2
683.864	657.2
684.288	667.4
684.69	646.6
685.114	673.8
685.516	674.4
685.94	651.8
686.342	670.8
686.766	655.4
687.168	655.4
687.571	677.4
687.995	659.6
688.398	644
688.822	656.2
689.225	671.2
689.628	683
690.052	651.2
690.456	658
690.88	663.2
691.284	646.6
691.687	669.6
692.112	651.8
692.515	646.8
692.919	656.4
693.344	666.6
693.747	656
694.173	653.6
694.577	673.6
694.98	664
695.406	661
695.81	668.4
696.214	659.2
696.64	669.2
697.044	662
697.448	672.2
697.874	660.8
698.279	656.2
698.684	652.8
699.11	648.2
699.514	655.8
699.919	656.8
700.324	649.8
700.75	656.2
701.156	655
701.561	668.2
701.987	671.6
702.393	668.8
702.798	672
703.203	660.8
703.63	651.4
704.036	645.6
704.442	660.8
704.847	641.4
705.274	662.2
705.68	668.8
706.086	664.8
706.492	648
706.92	656.6
707.326	663.6
707.732	655.4
708.139	654
708.545	651
708.973	657.2
709.38	663.8
709.786	645.8
710.193	671.4
710.6	652.2
711.028	646.4
711.435	664
711.842	669
712.249	663.6
712.656	657.4
713.064	666.4
713.492	653.6
713.9	659
714.307	667.6
714.715	659.4
715.123	662.4
715.53	671.4
715.938	670.4
716.367	671.6
716.775	652.2
717.184	660.4
717.592	659.4
718	677
718.408	698.8
718.816	716.2
719.225	674.2
719.633	661.4
720.042	656.4
720.472	659.8
720.881	680
721.29	656
721.699	646.6
722.108	663.2
722.517	662.6
722.926	656
723.335	668.2
723.744	647.4
724.154	665
724.563	665.6
724.973	671.8
725.382	659
725.792	652.4
726.202	654.4
726.612	678.8
727.022	656.4
727.432	651
779.813	659.8
780.223	715
780.634	656.2
781.044	649.6
781.454	656.6
781.865	675.2
782.276	649.4
782.686	676.4
783.097	662.4
783.508	640.4
783.919	656.2
784.33	669.8
784.741	685.2
785.152	650.6
785.563	645.8
785.974	651
786.386	674
786.776	656
787.188	656
787.599	643.8
788.011	667
788.423	664.8
788.835	653.6
789.247	648.6
789.659	663.8
790.071	646.4
790.483	704.4
790.874	659.8
791.286	658.2
791.699	660.2
792.111	653.4
792.524	656
792.937	651.8
793.349	644.8
793.741	652
794.154	650.2
794.567	674.4
794.98	657.2
795.393	649.4
795.785	673
796.198	648.8
796.612	655.2
797.026	658.8
797.439	636
797.831	657.6
798.245	660
798.659	655.4
799.073	652.2
799.487	649.2
799.88	663.8
800.294	655
800.708	656.6
801.123	668
801.516	676.2
801.93	642.2
802.345	640
802.76	663.2
803.153	672.4
803.568	681.8
803.983	672.6
804.377	658.8
804.792	641.6
805.207	633.4
805.601	659.4
806.016	695
806.432	652
806.826	692.6
807.242	676.6
807.658	652.8
808.052	655.4
808.468	655.8
808.884	651.8
809.279	666.6
809.695	679
810.111	689.4
810.506	665.4
810.922	677.2
811.339	656.8
811.734	669.4
812.151	655.8
812.546	658.8
812.963	647
813.38	660.4
813.776	659.6
814.193	678.6
814.589	653.4
815.006	653
815.402	653.4
815.82	649
816.237	657.6
816.633	655.8
817.051	642.2
817.448	660.2
817.866	637.6
818.262	672
818.68	650.6
819.077	649
819.495	655.8
819.892	704
820.311	646.2
820.708	645.2
821.127	653.6
821.524	664.2
821.943	669
822.34	676
822.759	663
823.157	659.2
823.576	682.8
823.974	667.8
824.393	740.4
824.791	656.8
825.189	650.2
825.609	652.8
826.007	660.8
826.427	637.4
826.826	649.2
827.246	661.2
827.644	638.8
828.043	670.2
828.463	650.2
828.862	670.6
829.261	663.8
829.682	648
830.081	666.6
830.502	642.6
830.901	659.6
831.301	659.6
831.722	642.4
832.121	659.6
832.521	652.8
832.943	664.8
833.342	657.6
833.742	644.8
834.164	659.2
834.564	637.8
834.965	654.8
835.386	653.6
835.787	655.4
836.188	656.4
836.588	668.4
837.01	652.4
837.411	645
837.812	665
838.213	661.2
838.636	654.8
839.037	737
839.438	662.2
839.84	661.6
840.263	666.8
840.664	662.6
841.066	665.2
841.468	659
841.891	658.4
842.293	671.8
842.695	656.4
843.098	675.2
843.5	653
843.902	660.4
844.326	648.6
844.729	658.6
845.131	659.2
845.534	651.6
845.937	672.8
846.34	676
846.764	642.4
847.167	654.2
847.571	646.4
847.974	650.8
848.377	649.4
848.781	712.2
849.184	673.2
849.588	657
849.992	653.6
850.396	658.8
850.821	681
851.225	658.8
851.63	652.8
852.034	671.2
852.438	654.2
852.843	791.4
853.247	647.2
853.652	647.2
854.057	671.4
854.462	658.8
854.867	650.2
855.272	690.4
855.677	656
856.082	648.4
856.487	650.6
856.893	657.6
