#lambda/nm	C1
208.295	537
208.67	492
209.045	452.2
209.419	451.4
209.794	690
210.169	662.6
210.544	817
210.919	689.4
211.295	684
211.67	699
212.045	692.8
212.421	680
212.796	724.2
213.172	687.2
213.547	681.2
213.923	684.4
214.299	677
214.675	696.2
215.051	691.2
215.427	701.2
215.803	710
216.179	688
216.555	667.8
216.932	692.6
217.308	684
217.684	687.6
218.061	685.2
218.438	698.8
218.814	679.8
219.191	699
219.568	681.6
219.945	679
220.322	691.6
220.699	685.4
221.076	695
221.453	692
221.83	678.2
222.208	678.4
222.585	690.8
222.962	698.2
223.34	688.6
223.717	683.8
224.095	692.6
224.473	688
224.851	685.4
225.229	681.2
225.607	711.6
225.985	677
226.363	691
226.741	692
227.119	685.2
227.497	693.6
227.876	670.6
228.254	696
228.633	697.4
229.011	684.2
229.39	689.2
229.769	683
230.148	696.6
230.527	707
230.905	684.8
231.284	691
231.664	686.4
232.043	693.2
232.422	694
232.801	690.2
233.181	696.8
233.56	683.8
233.94	683.6
234.319	680.8
234.699	687
235.079	737.2
235.458	729
235.838	709.2
236.218	688.6
236.598	682.6
236.978	679
237.358	681.2
237.738	677.6
238.119	694.6
238.499	677.6
238.88	687.6
239.26	710.6
239.641	671.6
240.021	689.6
240.402	690.2
240.783	682.2
241.163	682.2
241.544	690.4
241.925	682.2
242.306	705.4
242.687	677.2
243.069	686.8
243.45	689.6
243.831	678.8
244.212	687.2
244.594	732.6
244.975	691.8
245.357	689.2
245.739	678
246.12	683.8
246.502	706
246.884	687.2
247.266	685
247.648	684.6
248.03	715.2
248.412	690.6
248.794	691.8
249.176	687.2
249.559	694.2
249.941	675.4
250.323	677.6
250.706	685.6
251.089	688.2
251.471	694.6
251.854	679.2
252.237	689.8
252.62	702.8
253.002	683.6
253.385	693.6
253.769	701.4
254.152	691
254.535	695.8
254.918	676.2
255.301	689.2
255.685	686
256.068	675.4
256.452	713.8
256.835	695
257.219	691
257.603	711.8
257.986	679.4
258.37	694.2
258.754	675.2
259.138	690.6
259.522	695.2
259.906	697
260.29	700
260.675	683.4
261.059	686
261.443	686.2
261.828	698.8
262.212	697.2
262.597	673.2
262.981	680
263.366	685.4
263.751	688
264.136	673.2
264.521	688.6
264.906	680.4
265.291	706.8
265.676	686.4
266.061	691.2
266.446	711.2
266.831	688.8
267.217	706.8
267.602	689.6
267.987	697.2
268.373	688
268.759	702.2
269.144	689.4
269.53	683.2
269.916	676.6
270.302	687.2
270.688	704
271.074	695.2
271.46	694.8
271.846	726.8
272.232	686.8
272.618	682.2
273.004	678.8
273.391	693.6
273.777	700
274.164	692.4
274.55	706.4
274.937	696.6
275.324	680.2
275.71	692
276.097	702
276.484	684
276.871	687.8
277.258	699.2
277.645	675.8
278.032	695.4
278.419	684.8
278.807	701.6
279.194	682.2
279.581	681.8
279.969	700
280.356	685.6
280.744	684.6
281.131	716.2
281.519	699.2
281.907	681
282.295	686.2
282.682	709.2
283.07	693.6
283.458	701.4
283.846	702.2
284.235	701.2
284.623	703
285.011	679.4
285.399	690.6
285.788	691.6
286.176	683.4
286.565	709
286.953	675
287.342	692
287.731	674
288.119	675
288.508	690.6
288.897	688.4
289.286	668.6
289.675	684.4
290.064	702
290.453	679.8
290.821	688.6
291.21	711.2
291.599	678.4
291.989	693.8
292.378	685.4
292.768	709.8
293.157	692
293.547	701.6
293.936	686
294.326	683.8
294.716	693.4
295.106	692.2
295.496	697.6
295.886	696.2
296.276	699.2
296.666	682.4
297.056	689.4
297.446	679.2
297.836	714.2
298.227	688.8
298.617	694.6
299.008	709.6
299.398	689.8
299.789	690.2
300.179	698.6
300.57	708.6
300.961	691.2
301.352	687.2
301.742	708.8
302.133	695
302.524	684.8
302.915	694.4
303.307	678.2
303.698	704.8
304.089	694.8
304.48	685.6
304.872	691.2
305.263	687.6
305.655	689
306.046	695.2
306.438	696.4
306.829	689.8
307.221	707.8
307.613	701.8
308.005	703.4
308.397	709.4
308.789	714
309.181	726.6
309.573	718.4
309.965	711.4
310.357	685.8
310.749	710.6
311.142	682.2
311.534	682.6
311.926	698.2
312.319	693.6
312.711	671.2
313.104	706.6
313.497	684.6
313.889	735
314.282	711.8
314.675	723
315.068	690
315.461	688
315.854	727.4
316.247	700.6
316.64	694.4
317.033	687.6
317.405	700.8
317.798	694.6
318.192	693.6
318.585	677.6
318.979	696.6
319.372	684.4
319.766	688
320.16	699.4
320.553	703.6
320.947	716
321.341	689
321.735	692.8
322.129	682.8
322.523	721.8
322.917	674.8
323.311	707.2
323.705	701.6
324.099	697.4
324.494	709.6
324.888	704.4
325.282	693.6
325.677	710
326.071	700.6
326.466	703
326.861	704
327.255	705.6
327.65	711
328.045	714
328.44	703.4
328.835	695.8
329.23	688.2
329.625	713.8
330.02	687.8
330.415	720.2
330.81	694
331.206	694.2
331.601	679.8
331.996	709
332.37	713
332.766	683.6
333.161	718
333.557	683
333.953	688.4
334.348	1081.6
334.744	694.8
335.14	684
335.536	685.8
335.932	702.4
336.328	698.2
336.724	705.6
337.12	697
337.516	695
337.913	698.2
338.309	719.2
338.705	694.6
339.102	709.2
339.498	692.4
339.895	713.2
340.291	692.4
340.688	697.8
341.085	683.2
341.481	692.4
341.878	694.2
342.275	718.6
342.672	683.8
343.069	691.6
343.466	679.4
343.842	700.4
344.239	676
344.636	688.4
345.033	683.6
345.431	689.4
345.828	695.6
346.225	676
346.623	726
347.02	689.2
347.418	692.4
347.816	704.2
348.213	682.6
348.611	697.4
349.009	684
349.407	696.8
349.805	680
350.203	668.8
350.601	707
350.999	690.6
351.397	757.8
351.795	688.4
352.193	693.4
352.57	704.8
352.969	711
353.367	674.6
353.766	682.4
354.164	682.6
354.563	701.4
354.961	693
355.36	678.4
355.759	694.8
356.158	686.4
356.557	684.8
356.956	674.8
357.355	678.2
357.754	688.8
358.153	683.6
358.552	719.4
358.951	682.6
359.35	695
359.75	678.6
360.149	672.8
360.527	671.2
360.926	672.4
361.326	685.2
361.726	684.4
362.125	669.4
362.525	699.6
362.925	686.8
363.325	685.2
363.724	690.4
364.124	677.4
364.524	680.4
364.924	678.4
365.324	691.8
365.725	667.2
366.125	689.8
366.525	685.8
366.904	677.2
367.304	672.4
367.705	704.8
368.105	699.4
368.506	680.4
368.906	685.4
369.307	683
369.708	692.6
370.108	671.6
370.509	701
370.91	682.8
371.311	686.6
371.712	682.4
372.113	677.2
372.514	664.4
372.894	687.6
373.295	681.8
373.696	700
374.097	697.6
374.499	720.8
374.9	684.2
375.301	674.4
375.703	686.8
376.105	680.8
376.506	686.2
376.908	683.6
377.309	684.8
377.711	683.8
378.113	677.2
378.493	673
378.895	680
379.297	687
379.699	670.4
380.102	682
380.504	677.2
380.906	678
381.308	713.6
381.71	677.8
382.113	690
382.515	691
382.918	688
383.299	676.4
383.701	684.4
384.104	682.6
384.507	658.8
384.909	681.6
385.312	667
385.715	676.6
386.118	685.6
386.521	665.4
386.924	696.4
387.327	669.8
387.709	677.2
388.112	669.2
388.515	680
388.918	684.8
389.322	690.4
389.725	671
390.129	700
390.532	681.8
390.936	683.2
391.339	673.2
391.743	691
392.125	670.2
392.529	686
392.933	694.2
393.337	682.4
393.74	670
394.144	672
394.548	680.6
394.953	684.6
395.357	688.4
395.761	670.8
396.144	689.2
396.548	672.4
396.952	688.4
397.357	684.8
397.761	679
398.166	679
398.57	674.6
398.975	664.2
399.379	684.8
399.763	740.2
400.168	685.6
400.572	683.4
400.977	680.8
401.382	699.2
401.787	693.6
402.192	701.6
402.597	700.8
403.002	662
403.386	696.2
403.791	707.6
404.197	680
404.602	682.6
405.007	687
405.413	688.4
405.818	685.8
406.224	672
406.608	683.8
407.014	678.4
407.42	705
407.825	680.4
408.231	687.8
408.637	674.6
409.043	702.8
409.449	681.6
409.834	678.4
410.24	688.4
410.646	697.4
411.052	694
411.458	685.6
411.865	689.2
412.271	698.4
412.677	686.2
413.062	683
413.469	675
413.875	714.4
414.282	707
414.689	689
415.095	692.2
415.502	678.6
415.888	683.4
416.294	660.8
416.701	723
417.108	677.2
417.515	692.8
417.923	673
418.33	718.8
418.715	693.6
419.123	675.8
419.53	673.6
419.937	687.2
420.345	700.6
420.752	692
421.16	698.6
421.546	681
421.953	687.6
422.361	665.8
422.769	678.6
423.177	668.2
423.585	707.6
423.992	698.6
424.379	697.8
424.787	694.4
425.195	708.4
425.603	680
426.011	709.6
426.419	705.8
426.806	692
427.214	691.8
427.623	703
428.031	711.2
428.44	686
428.848	698.4
429.235	716.2
429.644	690.2
430.053	691.4
430.461	701.8
430.87	720
431.279	699.2
431.666	685.4
432.075	694.2
432.484	698.6
432.893	690.6
433.302	714.6
433.711	745.2
434.099	694.8
434.508	685.6
434.918	679
435.327	701.2
435.737	693.8
436.125	692
436.534	697
436.944	688.2
437.353	692.6
437.763	712.8
438.173	676.2
438.561	704
438.971	666.2
439.381	676.2
439.791	675.6
440.201	655.2
440.589	685.2
440.999	689
441.409	686.4
441.819	675.4
442.23	695
442.619	689.4
443.029	682
443.439	686.8
443.85	692.4
444.26	705.4
444.649	696.6
445.06	688.8
445.471	679.8
445.881	685.4
446.292	704.4
446.682	705
447.092	664.6
447.503	733.6
447.914	685.2
448.325	681.2
448.715	680.2
449.126	676.2
449.537	686.8
449.948	679.8
450.338	681.2
450.75	692.2
451.161	678.2
451.572	682.6
451.984	669.4
452.374	660.8
452.786	684.6
453.197	675.6
453.609	686.6
453.999	672.4
454.411	671.4
454.823	691.6
455.235	687.4
455.647	678
456.037	691
456.449	658
456.862	682
457.274	683.2
457.665	675.2
458.077	687.2
458.489	718.8
458.902	675
459.293	681
459.705	677.4
460.118	671.8
460.53	688
460.921	690.6
461.334	698.6
461.747	679.2
462.16	705.8
462.551	692.4
462.964	684.2
463.377	663.8
463.79	671.8
464.182	681
464.595	670.8
465.008	693.4
465.421	687.8
465.813	672.8
466.226	687.6
466.64	669.4
467.053	726.6
467.445	692.8
467.859	698
468.272	684.6
468.686	698.8
469.078	673.6
469.492	669
469.906	681.6
470.298	685.4
470.712	676.4
471.126	735.6
471.54	664
471.933	675.6
472.347	665.4
472.761	672
473.175	661
473.568	672.8
473.982	673
474.397	677.6
474.79	679
475.204	682.2
475.619	679.8
476.033	678.8
476.426	677.2
476.841	676.4
477.256	697
477.649	667
478.064	664.6
478.479	667.4
478.872	670.2
479.287	654
479.702	663.8
480.118	672
480.511	674
480.927	670.2
481.342	666.6
481.736	683
482.151	674
482.566	680.4
482.96	666.6
483.376	681
483.792	663.4
484.186	670
484.602	675.4
485.017	671
485.412	671.4
485.827	677.2
486.243	670.6
486.638	701.2
487.054	677.8
487.47	690.4
487.865	665.6
488.281	673.6
488.697	671.4
489.092	674.6
489.508	654.6
489.925	682.6
490.32	671.6
490.736	685.8
491.153	681.6
491.548	676.8
491.964	689.8
492.381	660.6
492.776	675.4
493.193	669
493.61	688
494.006	678.6
494.422	684.6
494.84	656.8
495.235	686
495.652	672.4
496.069	675.8
496.465	669
496.883	666
497.3	699
497.696	671
498.113	685
498.509	662
498.927	658.4
499.344	669.4
499.741	660.2
500.158	677.4
500.576	683.8
500.973	672.2
501.39	662.2
501.787	660
502.205	672.6
502.623	668.2
503.02	657.6
503.438	666.6
503.856	674.6
504.253	680.2
504.671	675.8
505.068	661.4
505.486	659.2
505.905	700.4
506.302	663.8
506.72	686.8
507.118	668.6
507.536	673
507.955	671.6
508.352	680.4
508.771	683.8
509.169	675.2
509.587	665.4
510.006	672.2
510.404	655.8
510.823	661.8
511.221	667.2
511.64	666.8
512.038	690.4
512.457	675.6
512.877	671.8
513.275	667.2
513.694	664.8
514.092	672.6
514.512	677.8
514.91	667
515.33	669.4
515.749	683.6
516.148	668.2
516.568	679.6
516.966	665.2
517.386	661
517.785	671
518.205	672.6
518.603	667
519.024	662.8
519.444	672.6
519.843	684
520.263	685.4
520.662	673.8
521.082	670.2
521.481	660
521.902	664.4
522.301	664.4
522.722	686.4
523.121	672.8
523.542	669.4
523.963	671.6
524.362	669.6
524.783	680.6
525.183	661.6
525.604	669
526.003	663.4
526.425	668.2
526.824	672.4
527.246	690.6
527.646	677.2
528.067	667.8
528.467	666.2
528.888	673.4
529.289	673.6
529.71	670.8
530.11	673
530.532	669.8
530.932	668
531.354	666.2
531.755	716.8
532.176	682.8
532.577	669.6
532.999	673
533.4	673
533.822	683.2
534.223	667.6
534.645	664.6
535.046	662.8
535.468	669.6
535.869	696
536.292	661.6
536.693	711
537.115	673.6
537.516	671
537.939	676
538.34	693.8
538.742	685.8
539.165	671.8
539.566	667.4
539.989	658.8
540.391	664.2
540.814	665.8
541.216	671.2
541.639	667.6
542.041	672
542.464	663.6
542.866	663.8
543.268	659.6
543.691	672.6
544.093	672.4
544.517	693.6
544.919	666.6
545.343	693.6
545.745	661.4
546.147	681.2
546.571	671
546.974	661.2
547.398	672.8
547.8	687.4
548.224	667.6
548.627	666.4
549.03	677.4
549.454	663.2
549.857	661.4
550.281	660.8
550.684	661.8
551.087	688.8
551.512	688
551.915	676.4
552.34	673
552.743	674.6
553.146	672
553.571	675.6
553.975	695.2
554.399	662.6
554.803	730.4
555.207	662
555.632	664.4
556.036	668
556.461	654.8
556.865	670
557.268	666
557.694	675.2
558.098	680.4
558.502	671
558.927	664.2
559.332	665.6
559.736	671.6
560.162	678
560.566	667.6
560.992	676.6
561.396	669
561.801	661
562.227	672
562.631	671.2
563.036	666.2
563.462	684.6
563.867	674.8
564.272	648.2
564.698	673
565.103	660.6
565.508	683.8
565.935	669.6
566.34	666.8
566.745	674.6
567.172	657.8
567.577	694.2
567.982	668.4
568.409	680.2
568.815	659
569.22	675.4
569.626	677.2
570.053	654.4
570.459	673.2
570.865	679.6
571.292	669.2
571.698	668.6
572.104	651.2
572.531	660.4
572.937	674
573.343	658.6
573.75	670
574.177	673.4
574.583	671.6
574.99	665.8
575.396	668.6
575.824	657.8
576.231	678.4
576.637	662.2
577.065	700.8
577.472	659.8
577.879	664.4
578.286	687.8
578.714	663.2
579.121	667.8
579.528	673.8
579.935	677.6
580.364	664.6
580.771	650.4
581.178	664.6
581.585	669
582.014	675.8
582.421	667.4
582.829	660
583.236	662
583.644	661.2
584.073	659.4
584.481	664.2
584.889	666.4
585.296	671
585.726	665.2
586.134	652.8
586.542	658.4
586.95	679.4
587.358	651
587.787	672.4
588.196	649.8
588.604	655
589.012	664.6
589.421	657.8
589.851	665.2
590.259	667.4
590.668	658.8
591.076	703
591.485	663.2
591.894	663
592.324	682.2
592.733	682.8
593.142	650.2
593.551	664
593.96	706.6
594.369	657.8
594.8	657.2
595.209	655.6
595.618	646.4
596.028	654.2
596.437	651.4
596.847	664.8
597.256	673.2
597.687	668.8
598.097	672.6
598.507	657.8
598.917	661.4
599.327	676.6
599.736	673.8
600.146	674.4
600.556	661.4
600.988	682
601.398	655.4
601.808	676.4
602.219	651
602.629	662
603.039	669
603.45	699
603.86	668.2
604.271	690.6
604.703	671
605.114	662.8
605.525	669.6
605.935	672
606.346	691.2
606.757	670.4
607.168	661.8
607.579	664.8
607.99	680.2
608.402	665
608.813	663.4
609.224	657
609.636	652.2
610.047	664.8
610.48	656.6
610.892	672
611.303	672.4
611.715	658.4
612.127	656.4
612.539	659
612.95	670.8
613.362	656.4
613.774	655.8
614.186	660.8
614.599	655.8
615.011	674.8
615.423	662
615.835	658.4
616.248	651.6
616.66	676.4
617.073	649
617.485	665.6
617.898	664.2
618.311	657.6
618.723	659.6
619.136	698.6
619.549	684.2
619.962	692.4
620.375	665
620.788	671.6
621.201	650
621.614	675.6
622.028	669.2
622.441	668.4
622.854	686.6
623.268	647.2
623.681	666.2
624.095	669
624.509	673.2
624.922	677.2
625.336	650
625.728	664.8
626.142	686.4
626.556	679.2
626.97	668.4
627.384	663.8
627.799	654.8
628.213	674.8
628.627	660.4
629.041	652.6
629.456	660.6
629.87	656.6
630.285	680.8
630.699	674.6
631.093	666.4
631.507	669.8
631.922	668.6
632.337	680
632.752	650.4
633.167	673.6
633.582	659.4
633.997	664.4
634.412	657.2
634.806	669.2
635.221	659.8
635.637	676.6
636.052	653.4
636.468	670.4
636.883	683.6
637.299	665.8
637.715	647.6
638.109	662.8
638.525	660.8
638.941	681.6
639.357	666.8
639.773	680.2
640.189	662.8
640.584	660.2
641	667.8
641.416	653
641.832	666.6
642.249	661.2
642.665	666
643.06	668
643.477	680.2
643.894	646.8
644.31	663.6
644.727	661.4
645.123	653
645.54	661.8
645.957	661.4
646.374	685.8
646.77	656.8
647.187	696.6
647.604	663.4
648.021	648.8
648.439	659
648.835	669
649.252	662.2
649.67	647.6
650.088	673.8
650.484	665.6
650.902	673.2
651.32	665.4
651.738	653.6
652.134	668.4
652.552	682.8
652.971	666
653.389	661.2
653.786	680
654.204	685.6
654.622	647.6
655.019	662.2
655.438	671.2
655.857	668
656.275	675.8
656.673	652
657.091	754
657.51	656.8
657.908	670.6
658.327	682.8
658.746	653.6
659.144	662.4
659.563	674
659.982	665.2
660.38	660
660.8	663.8
661.219	672.2
661.617	672.2
662.037	662.6
662.457	663.2
662.855	650.6
663.275	702.6
663.695	666.8
664.094	656.6
664.514	669
664.934	658
665.333	664.4
665.753	654
666.152	651
666.572	654
666.993	669.8
667.392	662.4
667.812	660
668.212	655.4
668.632	672.4
669.053	660.8
669.453	663.8
669.874	670.2
670.273	666
670.694	653.4
671.116	670
671.515	672
671.937	657.4
672.337	657.2
672.758	650.8
673.158	673.8
673.58	649
673.98	665.4
674.402	671.4
674.824	665
675.224	664.4
675.646	658.2
676.047	656.4
676.469	661.4
676.869	672.8
677.292	668.4
677.693	651.6
678.115	661.6
678.516	672.4
678.939	664.2
679.34	662.2
679.762	682.8
680.164	663.8
680.586	659.8
680.988	663.8
681.411	695.6
681.812	661
682.236	662.4
682.637	658.8
683.061	656
683.462	659.6
683.864	659.4
684.288	664.2
684.69	644.8
685.114	676.8
685.516	674.8
685.94	660.6
686.342	676.8
686.766	653
687.168	660.6
687.571	683.4
687.995	658.4
688.398	639.8
688.822	663.6
689.225	681.2
689.628	678
690.052	671.2
690.456	662.6
690.88	657.8
691.284	655.4
691.687	663.8
692.112	655
692.515	641.8
692.919	657.6
693.344	659.6
693.747	661.4
694.173	656.8
694.577	675.8
694.98	662.6
695.406	667.2
695.81	671.2
696.214	662.6
696.64	662
697.044	673.8
697.448	666.4
697.874	658
698.279	665.4
698.684	653.4
699.11	653.8
699.514	652.6
699.919	653.8
700.324	652
700.75	668.2
701.156	659.8
701.561	673.8
701.987	674.2
702.393	679.2
702.798	671.4
703.203	660.4
703.63	652.6
704.036	660.6
704.442	672.4
704.847	654.8
705.274	656.4
705.68	661.4
706.086	662.6
706.492	650.8
706.92	671.8
707.326	671
707.732	661.6
708.139	646.4
708.545	649.4
708.973	653.2
709.38	664.2
709.786	651
710.193	682.2
710.6	663.4
711.028	649
711.435	661
711.842	650.8
712.249	652.4
712.656	657.8
713.064	670.4
713.492	655.2
713.9	654.8
714.307	669.4
714.715	657.2
715.123	662.8
715.53	668
715.938	672.2
716.367	659.8
716.775	664.2
717.184	649
717.592	663.2
718	674.6
718.408	696.2
718.816	714.6
719.225	661
719.633	661
720.042	650
720.472	650.8
720.881	681
721.29	662.6
721.699	647.6
722.108	656.2
722.517	670.6
722.926	656.4
723.335	672
723.744	655
724.154	664.6
724.563	663.6
724.973	669.2
725.382	664.8
725.792	663.6
726.202	659.4
726.612	688
727.022	661.2
727.432	653.8
779.813	659.2
780.223	700.6
780.634	660.6
781.044	653.8
781.454	660.4
781.865	670.6
782.276	645.2
782.686	669.6
783.097	654.4
783.508	654.6
783.919	656.4
784.33	677
784.741	664.4
785.152	656.6
785.563	641.2
785.974	656.6
786.386	665.2
786.776	657.6
787.188	656.4
787.599	647.4
788.011	668.6
788.423	668.6
788.835	657.2
789.247	654
789.659	647
790.071	652.8
790.483	705.8
790.874	658.6
791.286	669.2
791.699	653.8
792.111	666.2
792.524	660
792.937	656.6
793.349	660.2
793.741	655.4
794.154	656.4
794.567	682.6
794.98	661
795.393	642
795.785	677.2
796.198	662
796.612	656.6
797.026	648.6
797.439	636
797.831	669
798.245	645.6
798.659	651.2
799.073	655.6
799.487	646
799.88	658.4
800.294	652.2
800.708	652.4
801.123	663.2
801.516	665.8
801.93	639.8
802.345	640.4
802.76	663
803.153	672.4
803.568	678.4
803.983	675.6
804.377	665
804.792	648.8
805.207	638.8
805.601	665.6
806.016	694
806.432	654
806.826	697.4
807.242	677
807.658	662.2
808.052	654.6
808.468	658
808.884	668.4
809.279	663.6
809.695	676.6
810.111	685.4
810.506	669.8
810.922	676.2
811.339	662.6
811.734	663.6
812.151	650
812.546	657
812.963	655.6
813.38	664.2
813.776	657.4
814.193	674
814.589	653.4
815.006	665
815.402	639.2
815.82	654.6
816.237	652.2
816.633	659
817.051	649.4
817.448	654.2
817.866	654.6
818.262	682.6
818.68	653.6
819.077	647.6
819.495	653
819.892	701.2
820.311	643.8
820.708	651.6
821.127	653
821.524	683.6
821.943	659
822.34	686.8
822.759	662.4
823.157	653
823.576	677.2
823.974	667.4
824.393	788.6
824.791	659.8
825.189	645.8
825.609	645.6
826.007	650.4
826.427	652.8
826.826	649.2
827.246	657
827.644	638.8
828.043	662.4
828.463	652.6
828.862	663
829.261	660.4
829.682	644
830.081	667
830.502	650
830.901	661.2
831.301	651
831.722	650.8
832.121	650.8
832.521	646.8
832.943	655
833.342	654.6
833.742	649.4
834.164	655.2
834.564	645
834.965	652.4
835.386	650.2
835.787	656.4
836.188	662.6
836.588	660.8
837.01	661.8
837.411	642.8
837.812	668.4
838.213	674
838.636	653.2
839.037	723.6
839.438	669.2
839.84	658.2
840.263	671.4
840.664	659.4
841.066	654.6
841.468	658.8
841.891	654.4
842.293	673.2
842.695	662
843.098	674.8
843.5	653.6
843.902	657
844.326	653.4
844.729	661.6
845.131	673.2
845.534	645.8
845.937	670.6
846.34	679.6
846.764	648.6
847.167	659.6
847.571	643.2
847.974	653
848.377	653.6
848.781	706.8
849.184	673.4
849.588	650.2
849.992	651.2
850.396	658.4
850.821	670.2
851.225	654.4
851.63	664.6
852.034	669.6
852.438	657.6
852.843	796
853.247	654.6
853.652	648.2
854.057	674
854.462	653.8
854.867	663.4
855.272	688.2
855.677	662.8
856.082	643.2
856.487	652
856.893	656
857.298	655.6
857.704	651.8
858.11	659.8
