#lambda/nm	C1
208.295	535
208.67	485.8
209.045	453.4
209.419	447.8
209.794	688
210.169	665.4
210.544	795.8
210.919	693
211.295	675.4
211.67	681.8
212.045	686
212.421	682.6
212.796	734.2
213.172	676.2
213.547	673
213.923	678.4
214.299	676.2
214.675	681.2
215.051	682
215.427	692
215.803	708
216.179	688.4
216.555	679.8
216.932	698.4
217.308	682.4
217.684	684.8
218.061	687.8
218.438	688
218.814	675
219.191	690
219.568	677.2
219.945	682
220.322	685.2
220.699	690.4
221.076	687
221.453	694.4
221.83	672.8
222.208	685
222.585	677
222.962	680.6
223.34	685.2
223.717	684.6
224.095	679.2
224.473	683.6
224.851	683.6
225.229	669.4
225.607	698.8
225.985	665.8
226.363	689.8
226.741	686.4
227.119	682.4
227.497	700.2
227.876	677
228.254	694.8
228.633	688.4
229.011	695.2
229.39	697.2
229.769	687
230.148	699.8
230.527	706.4
230.905	680.4
231.284	684.8
231.664	683.4
232.043	686.4
232.422	692.4
232.801	680.2
233.181	700.8
233.56	686.2
233.94	688.2
234.319	667.8
234.699	682.4
235.079	728.6
235.458	734
235.838	701.8
236.218	674.6
236.598	670
236.978	690.4
237.358	672.2
237.738	676
238.119	696.8
238.499	669.2
238.88	676.4
239.26	701.2
239.641	668.6
240.021	684
240.402	690.6
240.783	675.6
241.163	683.6
241.544	686
241.925	690.8
242.306	700.2
242.687	674
243.069	682.4
243.45	701.2
243.831	678.8
244.212	683.8
244.594	718
244.975	691.8
245.357	688.4
245.739	685.6
246.12	685.8
246.502	700.6
246.884	670
247.266	689.4
247.648	685.8
248.03	715.8
248.412	688.8
248.794	699
249.176	676
249.559	693.4
249.941	677
250.323	679
250.706	672.6
251.089	683.2
251.471	689.2
251.854	682.2
252.237	677.6
252.62	691.6
253.002	687
253.385	682
253.769	702.6
254.152	694.2
254.535	685
254.918	674.2
255.301	677.8
255.685	678.4
256.068	675.6
256.452	712
256.835	702.8
257.219	692.6
257.603	702.2
257.986	674.4
258.37	694.8
258.754	669.2
259.138	699.2
259.522	705
259.906	675.2
260.29	692.8
260.675	678.4
261.059	691.4
261.443	667.8
261.828	699.6
262.212	693.8
262.597	669.6
262.981	678.4
263.366	690.2
263.751	689.6
264.136	674.8
264.521	690.2
264.906	680.4
265.291	698
265.676	675.2
266.061	697.6
266.446	704.6
266.831	682.2
267.217	707
267.602	689.4
267.987	684.6
268.373	687.4
268.759	703.2
269.144	699.8
269.53	684.8
269.916	682
270.302	689
270.688	688.6
271.074	691.6
271.46	695.6
271.846	719.4
272.232	687.6
272.618	673.8
273.004	683.6
273.391	705.2
273.777	704.4
274.164	688
274.55	701
274.937	688.6
275.324	674.8
275.71	688.8
276.097	701.4
276.484	672
276.871	680.4
277.258	687
277.645	670.6
278.032	673
278.419	681.6
278.807	694.2
279.194	675.4
279.581	672.6
279.969	697.8
280.356	683.6
280.744	691
281.131	707
281.519	692
281.907	679
282.295	677
282.682	704.2
283.07	687.6
283.458	693.4
283.846	699.2
284.235	690.6
284.623	696
285.011	672.4
285.399	686.2
285.788	689.8
286.176	676.8
286.565	697.6
286.953	672.8
287.342	686.8
287.731	679
288.119	675.4
288.508	686.6
288.897	695.8
289.286	666.8
289.675	692.6
290.064	703.2
290.453	686.4
290.821	683.8
291.21	699.2
291.599	671
291.989	694.6
292.378	698.2
292.768	708.8
293.157	698.6
293.547	698.2
293.936	674.2
294.326	681
294.716	688.2
295.106	679.8
295.496	693.6
295.886	700
296.276	682.8
296.666	675.8
297.056	684.4
297.446	671.8
297.836	708.4
298.227	683.2
298.617	682.2
299.008	697.4
299.398	683
299.789	683.2
300.179	687.2
300.57	704.4
300.961	683
301.352	678
301.742	697.8
302.133	688
302.524	681.8
302.915	688.6
303.307	682
303.698	698.4
304.089	702.4
304.48	686.2
304.872	697.6
305.263	683.6
305.655	679.2
306.046	689
306.438	689.4
306.829	683.8
307.221	693.8
307.613	694.8
308.005	701.8
308.397	705
308.789	709.6
309.181	717.2
309.573	715.4
309.965	703.4
310.357	684.6
310.749	692.8
311.142	679.2
311.534	682.2
311.926	700.4
312.319	690.4
312.711	684.4
313.104	706.6
313.497	690
313.889	733.8
314.282	703.6
314.675	713.4
315.068	693.8
315.461	695.2
315.854	725.6
316.247	694
316.64	688
317.033	695.8
317.405	704.4
317.798	691.8
318.192	696
318.585	683
318.979	695.6
319.372	677.2
319.766	691
320.16	703.6
320.553	702.6
320.947	711.4
321.341	676
321.735	688.8
322.129	675
322.523	717.4
322.917	684.4
323.311	700.4
323.705	687.2
324.099	699.2
324.494	705
324.888	699.4
325.282	684.8
325.677	698.8
326.071	701.6
326.466	707.2
326.861	707.6
327.255	709.8
327.65	709.2
328.045	709.4
328.44	704
328.835	683.2
329.23	689.4
329.625	723.8
330.02	683.4
330.415	711.4
330.81	690.8
331.206	702.8
331.601	684.2
331.996	695.2
332.37	717
332.766	679.8
333.161	717.2
333.557	679.2
333.953	692.8
334.348	1089
334.744	686.2
335.14	684.6
335.536	685.6
335.932	709.2
336.328	688.6
336.724	697.8
337.12	688.4
337.516	695.6
337.913	690.6
338.309	702
338.705	696.2
339.102	706
339.498	679.2
339.895	693.2
340.291	686.4
340.688	696.2
341.085	676.6
341.481	686
341.878	697.8
342.275	712.4
342.672	681
343.069	682.8
343.466	671
343.842	701.6
344.239	679.6
344.636	691.8
345.033	682.2
345.431	672.8
345.828	686
346.225	677
346.623	717.4
347.02	686.8
347.418	695.2
347.816	704.4
348.213	668.4
348.611	692
349.009	679.6
349.407	700.4
349.805	676.8
350.203	669.2
350.601	700.4
350.999	680.8
351.397	740.2
351.795	697
352.193	694.8
352.57	690.2
352.969	700.8
353.367	670.6
353.766	679.8
354.164	692.8
354.563	696.8
354.961	687
355.36	679.2
355.759	681.4
356.158	683.2
356.557	675.2
356.956	673
357.355	673.4
357.754	693
358.153	684.6
358.552	717
358.951	685.8
359.35	690.4
359.75	689
360.149	678
360.527	672
360.926	674.8
361.326	684.2
361.726	683.8
362.125	673
362.525	692.6
362.925	684.6
363.325	687.4
363.724	690.8
364.124	681.2
364.524	680.2
364.924	683.2
365.324	692.8
365.725	662.6
366.125	689.2
366.525	686.4
366.904	676
367.304	669.2
367.705	708.4
368.105	688.4
368.506	689.2
368.906	693.8
369.307	685.4
369.708	684.8
370.108	669
370.509	697.6
370.91	676.4
371.311	677.2
371.712	679.4
372.113	675.8
372.514	667.2
372.894	677.8
373.295	669.6
373.696	692.4
374.097	692.4
374.499	717.4
374.9	687.6
375.301	669.2
375.703	681.2
376.105	666.8
376.506	688.6
376.908	687.6
377.309	684.4
377.711	694.2
378.113	670.8
378.493	695.2
378.895	684.2
379.297	687.4
379.699	664
380.102	684.4
380.504	674.2
380.906	663.8
381.308	709.6
381.71	679.4
382.113	689.2
382.515	681.6
382.918	670.2
383.299	683.2
383.701	681.4
384.104	679.8
384.507	660.6
384.909	673.4
385.312	668.6
385.715	666.4
386.118	675
386.521	664.8
386.924	690.8
387.327	662.4
387.709	673.6
388.112	656.6
388.515	673.4
388.918	676.6
389.322	679.6
389.725	673.2
390.129	705.4
390.532	680.2
390.936	677.8
391.339	670.4
391.743	683.2
392.125	665.4
392.529	691.8
392.933	687.6
393.337	677.6
393.74	678.6
394.144	681
394.548	669
394.953	673
395.357	671
395.761	680.2
396.144	686
396.548	677.4
396.952	675.6
397.357	671.4
397.761	675.4
398.166	678
398.57	672.2
398.975	666.6
399.379	683.8
399.763	729.4
400.168	677.2
400.572	679.8
400.977	682
401.382	698.8
401.787	698.8
402.192	699.4
402.597	702.6
403.002	665.8
403.386	696.2
403.791	700.4
404.197	667.6
404.602	680.8
405.007	679.4
405.413	673.2
405.818	688.8
406.224	670.6
406.608	674.6
407.014	665
407.42	698.4
407.825	669.6
408.231	683.8
408.637	685.4
409.043	699.8
409.449	667.8
409.834	667.6
410.24	674.4
410.646	696.8
411.052	695.2
411.458	680.4
411.865	696.6
412.271	689.4
412.677	679.2
413.062	681
413.469	665
413.875	714
414.282	698.6
414.689	688.8
415.095	686.6
415.502	678
415.888	677.6
416.294	663.8
416.701	736.6
417.108	679.8
417.515	686.8
417.923	680.8
418.33	707.4
418.715	701
419.123	675
419.53	674.2
419.937	684.4
420.345	698
420.752	677.4
421.16	698.6
421.546	677
421.953	690.2
422.361	675.4
422.769	673.4
423.177	670.6
423.585	708.2
423.992	706
424.379	687.8
424.787	689.8
425.195	705.8
425.603	679
426.011	697.8
426.419	691
426.806	691.6
427.214	686.2
427.623	695.2
428.031	704.6
428.44	687
428.848	697.2
429.235	698.4
429.644	688
430.053	684.2
430.461	702.4
430.87	715.8
431.279	695.8
431.666	679.4
432.075	688.8
432.484	697.2
432.893	681.8
433.302	711.8
433.711	748
434.099	696.8
434.508	680
434.918	673.4
435.327	698.8
435.737	683
436.125	683.4
436.534	686.4
436.944	695.8
437.353	680.2
437.763	715.6
438.173	682
438.561	699.2
438.971	663.6
439.381	678.2
439.791	694.6
440.201	660
440.589	678.6
440.999	691.6
441.409	680.8
441.819	673.6
442.23	691.6
442.619	696.6
443.029	674.8
443.439	691.2
443.85	699
444.26	699.4
444.649	691.8
445.06	678.2
445.471	669.2
445.881	688.4
446.292	697.4
446.682	706
447.092	666
447.503	738.4
447.914	680.6
448.325	681.6
448.715	677.4
449.126	672.2
449.537	676.8
449.948	683.8
450.338	685.6
450.75	681.4
451.161	681.8
451.572	688.8
451.984	674.2
452.374	663.6
452.786	676.4
453.197	679.2
453.609	691.8
453.999	670.8
454.411	658.8
454.823	686.8
455.235	680.6
455.647	678.2
456.037	679.8
456.449	669.6
456.862	680.6
457.274	682.2
457.665	666.6
458.077	681.2
458.489	705.8
458.902	678.4
459.293	672.2
459.705	685.6
460.118	674.8
460.53	685
460.921	676.4
461.334	684
461.747	676.6
462.16	696.4
462.551	686.4
462.964	688.4
463.377	663
463.79	674.4
464.182	698.2
464.595	666
465.008	679.4
465.421	684.4
465.813	673.2
466.226	679.6
466.64	671.4
467.053	729.4
467.445	691.4
467.859	702.8
468.272	680
468.686	680
469.078	681.8
469.492	671
469.906	673.2
470.298	674.8
470.712	668
471.126	743.6
471.54	655.4
471.933	677.2
472.347	672.4
472.761	664.6
473.175	669.8
473.568	661.2
473.982	665.4
474.397	674.6
474.79	669.2
475.204	680.8
475.619	671.2
476.033	671.6
476.426	669.8
476.841	668.8
477.256	694.4
477.649	673.6
478.064	668.4
478.479	668.8
478.872	664.4
479.287	659.2
479.702	665.2
480.118	668.2
480.511	678
480.927	677.4
481.342	674.6
481.736	676.4
482.151	666
482.566	684
482.96	660.4
483.376	681.6
483.792	664.8
484.186	670.8
484.602	668.4
485.017	665
485.412	670
485.827	677.6
486.243	677.2
486.638	699.2
487.054	670.8
487.47	692.6
487.865	667.6
488.281	661
488.697	666.6
489.092	673.6
489.508	661.8
489.925	680.2
490.32	663.8
490.736	676.4
491.153	675.8
491.548	670.8
491.964	680.2
492.381	647.2
492.776	673
493.193	670.8
493.61	685.4
494.006	670.2
494.422	674.4
494.84	655.8
495.235	680.4
495.652	667.2
496.069	663.8
496.465	658.2
496.883	670
497.3	695.2
497.696	665.2
498.113	672.6
498.509	662.8
498.927	666.6
499.344	661.4
499.741	664.4
500.158	677.2
500.576	679
500.973	672
501.39	664.8
501.787	658
502.205	675
502.623	662.4
503.02	649.2
503.438	661.6
503.856	673.2
504.253	675.8
504.671	673.4
505.068	651.6
505.486	670.4
505.905	685.8
506.302	668
506.72	680.4
507.118	656.8
507.536	679.2
507.955	667.2
508.352	667.8
508.771	675.4
509.169	672.8
509.587	659.2
510.006	665.4
510.404	649
510.823	659.8
511.221	664.2
511.64	657.6
512.038	681.2
512.457	656.8
512.877	656.4
513.275	655.4
513.694	656.6
514.092	665
514.512	667.4
514.91	661.6
515.33	665.4
515.749	669.6
516.148	672.2
516.568	662.8
516.966	665.6
517.386	663
517.785	668.4
518.205	657.6
518.603	660.8
519.024	664.6
519.444	668.2
519.843	681.8
520.263	687
520.662	669.4
521.082	661.2
521.481	673.6
521.902	661.6
522.301	662.4
522.722	675.4
523.121	675
523.542	665.4
523.963	667.6
524.362	675.6
524.783	681.2
525.183	662.8
525.604	665.2
526.003	664.2
526.425	666.2
526.824	675.2
527.246	674
527.646	683.2
528.067	670.8
528.467	669.6
528.888	672.6
529.289	660.8
529.71	663.6
530.11	666.8
530.532	660.2
530.932	661.4
531.354	660.6
531.755	706
532.176	679
532.577	667.6
532.999	665.6
533.4	661.4
533.822	678.2
534.223	664
534.645	668.2
535.046	662.2
535.468	672.2
535.869	682.2
536.292	664.8
536.693	711.6
537.115	676.4
537.516	654.6
537.939	663.4
538.34	685.8
538.742	682.4
539.165	671.4
539.566	668
539.989	652.8
540.391	660
540.814	667.4
541.216	672.2
541.639	663.6
542.041	676.2
542.464	657.4
542.866	665.2
543.268	655.6
543.691	670.6
544.093	688.4
544.517	693.4
544.919	658.8
545.343	691.4
545.745	656.4
546.147	672.6
546.571	668.8
546.974	646.6
547.398	675.4
547.8	692.8
548.224	671.6
548.627	656.8
549.03	676.6
549.454	662.6
549.857	657.8
550.281	654
550.684	662.8
551.087	677.2
551.512	673.4
551.915	670.8
552.34	668.8
552.743	670.8
553.146	660.6
553.571	663
553.975	701.6
554.399	668.8
554.803	718.6
555.207	665.6
555.632	660.8
556.036	665.6
556.461	647.2
556.865	663
557.268	661.6
557.694	659.2
558.098	676
558.502	673.2
558.927	661.8
559.332	660.4
559.736	665
560.162	668
560.566	660.2
560.992	667.8
561.396	671.4
561.801	660
562.227	671.2
562.631	660.4
563.036	667.8
563.462	671
563.867	669.6
564.272	653
564.698	667.4
565.103	654
565.508	694.6
565.935	668
566.34	660.6
566.745	675.2
567.172	661.2
567.577	686.6
567.982	689.2
568.409	670.2
568.815	656.8
569.22	660.4
569.626	670.8
570.053	651.4
570.459	667.6
570.865	678.2
571.292	676.8
571.698	668.4
572.104	656.2
572.531	654.8
572.937	673.6
573.343	670.8
573.75	667
574.177	665.8
574.583	670.4
574.99	668.2
575.396	674.4
575.824	666.2
576.231	675.2
576.637	668.6
577.065	698.8
577.472	664.2
577.879	666.6
578.286	676
578.714	661.4
579.121	653.8
579.528	670.4
579.935	679.4
580.364	668.8
580.771	645.2
581.178	649.4
581.585	665
582.014	669.4
582.421	650.8
582.829	660.8
583.236	676.4
583.644	653.6
584.073	658.6
584.481	666.8
584.889	646.6
585.296	670.8
585.726	665.4
586.134	656.2
586.542	655.4
586.95	682
587.358	648.4
587.787	668.4
588.196	647.8
588.604	661.2
589.012	660.6
589.421	652.8
589.851	660.4
590.259	665.4
590.668	659.2
591.076	701.8
591.485	644.6
591.894	659.6
592.324	679.2
592.733	677.8
593.142	653.2
593.551	650.4
593.96	666.4
594.369	651.6
594.8	656
595.209	658.4
595.618	645
596.028	647
596.437	643.4
596.847	657.8
597.256	667
597.687	667.4
598.097	656
598.507	653.6
598.917	666.2
599.327	661.8
599.736	659.8
600.146	670
600.556	664.2
600.988	680.2
601.398	653.8
601.808	672.6
602.219	653.8
602.629	661
603.039	666.8
603.45	692.2
603.86	665.2
604.271	682.4
604.703	664.6
605.114	658
605.525	658.2
605.935	672
606.346	696.8
606.757	658.6
607.168	656.8
607.579	654.8
607.99	678.2
608.402	664.8
608.813	662
609.224	651.2
609.636	645
610.047	647.8
610.48	665.2
610.892	673.2
611.303	668.2
611.715	666.4
612.127	651.2
612.539	654.4
612.95	665.8
613.362	650
613.774	650.4
614.186	655.4
614.599	654.2
615.011	665.8
615.423	657.4
615.835	652
616.248	651.8
616.66	665.8
617.073	653.6
617.485	650.2
617.898	664
618.311	666
618.723	663
619.136	695.8
619.549	677.6
619.962	689.2
620.375	658.8
620.788	667
621.201	652
621.614	677
622.028	653.4
622.441	655.8
622.854	687
623.268	649.4
623.681	671
624.095	658.4
624.509	673.4
624.922	664.8
625.336	645.4
625.728	657.2
626.142	675
626.556	685
626.97	670.2
627.384	660.6
627.799	666
628.213	670.2
628.627	653.4
629.041	655
629.456	650
629.87	664.4
630.285	667.4
630.699	658.4
631.093	672.4
631.507	672.4
631.922	666
632.337	670
632.752	643.6
633.167	658.4
633.582	654.8
633.997	651.8
634.412	651.2
634.806	658
635.221	644.8
635.637	670.8
636.052	649.4
636.468	665.8
636.883	679
637.299	654.6
637.715	644.6
638.109	665.8
638.525	651
638.941	680.2
639.357	671.2
639.773	681
640.189	651.8
640.584	662.6
641	674.4
641.416	646.4
641.832	667.4
642.249	657.8
642.665	659.4
643.06	661
643.477	672
643.894	644.4
644.31	651.2
644.727	663.2
645.123	667
645.54	643
645.957	661.6
646.374	671.4
646.77	663.4
647.187	688.8
647.604	664.6
648.021	645.4
648.439	652.2
648.835	669
649.252	660.2
649.67	669
650.088	655.6
650.484	660.4
650.902	665.4
651.32	664.8
651.738	671
652.134	658.6
652.552	684.8
652.971	674
653.389	664.6
653.786	679.4
654.204	682.2
654.622	660.6
655.019	667
655.438	663
655.857	661.8
656.275	667
656.673	654
657.091	749.2
657.51	659.6
657.908	670.4
658.327	678.6
658.746	639.8
659.144	660.6
659.563	679.8
659.982	665.2
660.38	655
660.8	664.8
661.219	674.4
661.617	669.6
662.037	662.8
662.457	673.8
662.855	641.4
663.275	699.8
663.695	657
664.094	667.8
664.514	658.2
664.934	654.8
665.333	667
665.753	647.2
666.152	652.8
666.572	656.4
666.993	672.2
667.392	657.4
667.812	665.2
668.212	647.6
668.632	668.8
669.053	653.6
669.453	666.8
669.874	668.2
670.273	674.4
670.694	656
671.116	674.4
671.515	668
671.937	662
672.337	650.8
672.758	663.6
673.158	659.2
673.58	649.6
673.98	661.6
674.402	674.8
674.824	660.4
675.224	651.8
675.646	652.2
676.047	653.8
676.469	655.4
676.869	668.8
677.292	662.8
677.693	653.6
678.115	650.4
678.516	676.6
678.939	665.8
679.34	653.4
679.762	676.8
680.164	667.6
680.586	654.8
680.988	662.4
681.411	677.2
681.812	646
682.236	654.8
682.637	650
683.061	648.2
683.462	653.2
683.864	657
684.288	665.4
684.69	651
685.114	674.6
685.516	673.4
685.94	643
686.342	666
686.766	660.4
687.168	647.6
687.571	678.8
687.995	667.6
688.398	646.2
688.822	652.8
689.225	678
689.628	678.8
690.052	655.4
690.456	669.8
690.88	651.6
691.284	644.4
691.687	670.8
692.112	652.2
692.515	647.8
692.919	658.4
693.344	657.6
693.747	651.6
694.173	644.8
694.577	671.8
694.98	655.8
695.406	658
695.81	661.2
696.214	667.4
696.64	667
697.044	655.8
697.448	669.2
697.874	663.2
698.279	658.2
698.684	637.4
699.11	647.2
699.514	661.8
699.919	659.2
700.324	646.8
700.75	657.4
701.156	650.6
701.561	665.6
701.987	664.8
702.393	669.2
702.798	672.6
703.203	662.8
703.63	649.8
704.036	648.8
704.442	652.2
704.847	651.6
705.274	661
705.68	661.4
706.086	659
706.492	643.4
706.92	660
707.326	666.6
707.732	661.2
708.139	655.8
708.545	649.2
708.973	652.2
709.38	654.8
709.786	649.4
710.193	677.8
710.6	661.8
711.028	642.4
711.435	657.2
711.842	660.8
712.249	645.2
712.656	653.8
713.064	658.6
713.492	644.8
713.9	649.8
714.307	669.4
714.715	663.4
715.123	664
715.53	657.8
715.938	663.8
716.367	659.4
716.775	649
717.184	644.4
717.592	654.6
718	664
718.408	695.2
718.816	701.4
719.225	653.4
719.633	656.8
720.042	641.6
720.472	651.6
720.881	681
721.29	649.8
721.699	639.6
722.108	650.2
722.517	664
722.926	654.8
723.335	671.8
723.744	655.2
724.154	661.4
724.563	659.2
724.973	657.4
725.382	666.8
725.792	654.6
726.202	646.6
726.612	680.8
727.022	657
727.432	653
779.813	648.8
780.223	710.6
780.634	652.8
781.044	649.8
781.454	654.6
781.865	672.6
782.276	642
782.686	674.4
783.097	656.2
783.508	649
783.919	653.6
784.33	666.2
784.741	673.4
785.152	653.6
785.563	641.4
785.974	648.2
786.386	663.4
786.776	658
787.188	660.6
787.599	639.8
788.011	672.2
788.423	654
788.835	650.4
789.247	641.6
789.659	651
790.071	656.6
790.483	712.6
790.874	652.6
791.286	668.8
791.699	653.6
792.111	650.8
792.524	660.8
792.937	644.4
793.349	643
793.741	651.4
794.154	651
794.567	680
794.98	653.2
795.393	648.2
795.785	668.2
796.198	652
796.612	664.6
797.026	649.2
797.439	635.4
797.831	652.6
798.245	646.4
798.659	654
799.073	652.2
799.487	643.2
799.88	658.6
800.294	651.2
800.708	657
801.123	656.4
801.516	681.8
801.93	646.8
802.345	645
802.76	654.8
803.153	673.2
803.568	662.6
803.983	662
804.377	664.8
804.792	639
805.207	639.2
805.601	657.6
806.016	693
806.432	657.4
806.826	691.2
807.242	685.8
807.658	654
808.052	654.6
808.468	643
808.884	650.2
809.279	650.6
809.695	666
810.111	683.2
810.506	658.4
810.922	676.4
811.339	649.6
811.734	658.2
812.151	651.4
812.546	650.8
812.963	647.8
813.38	660.6
813.776	641.2
814.193	679.4
814.589	649.4
815.006	648.4
815.402	660.4
815.82	645.6
816.237	654.6
816.633	655.6
817.051	642.6
817.448	649.6
817.866	647.4
818.262	675.2
818.68	651.4
819.077	649.2
819.495	658.6
819.892	711
820.311	655.2
820.708	652.8
821.127	647.6
821.524	662.6
821.943	653
822.34	682
822.759	656.4
823.157	651.8
823.576	674.2
823.974	664.4
824.393	732.4
824.791	652.6
825.189	654.4
825.609	653.6
826.007	652
826.427	642.6
826.826	652
827.246	662.6
827.644	643.6
828.043	659.4
828.463	644.4
828.862	665.6
829.261	662.6
829.682	641.4
830.081	665.2
830.502	651.6
830.901	655.2
831.301	649.2
831.722	635.4
832.121	654
832.521	650
832.943	657.4
833.342	657.2
833.742	641
834.164	649.8
834.564	639.8
834.965	652.4
835.386	650.8
835.787	650.4
836.188	654.4
836.588	659.8
837.01	650.8
837.411	644.8
837.812	656
838.213	655.8
838.636	648.6
839.037	729
839.438	648
839.84	654.4
840.263	654.6
840.664	656.4
841.066	651.4
841.468	656.2
841.891	646
842.293	663.2
842.695	651.8
843.098	663
843.5	657.4
843.902	655.2
844.326	653
844.729	658.8
845.131	665
845.534	643.2
845.937	665.2
846.34	677.4
846.764	650.6
847.167	653.2
847.571	640.8
847.974	647.2
848.377	651.4
848.781	703.8
849.184	659.6
849.588	646.4
849.992	645.2
850.396	652
850.821	671.6
851.225	651.6
851.63	651.8
852.034	663.6
852.438	657.4
852.843	802.6
853.247	645.2
853.652	647.6
854.057	673
854.462	659.2
854.867	659
855.272	676
