#lambda/nm	C1
208.295	541
208.67	490.4
209.045	450.2
209.419	455.2
209.794	681.6
210.169	663.4
210.544	813.4
210.919	691.6
211.295	680.4
211.67	687.6
212.045	687.4
212.421	681.6
212.796	724.6
213.172	677.2
213.547	677
213.923	679
214.299	679
214.675	692.2
215.051	676
215.427	699.2
215.803	694.8
216.179	687
216.555	672.8
216.932	688.6
217.308	687.6
217.684	677.8
218.061	692.8
218.438	679
218.814	682.6
219.191	695.6
219.568	681.2
219.945	680.2
220.322	686.8
220.699	690
221.076	700.6
221.453	687.6
221.83	689.8
222.208	681.6
222.585	680
222.962	690.4
223.34	693.8
223.717	688.8
224.095	689.4
224.473	689.6
224.851	687.8
225.229	674
225.607	706.4
225.985	672
226.363	685.2
226.741	686
227.119	685.4
227.497	703.6
227.876	673.6
228.254	694.2
228.633	697.8
229.011	691.8
229.39	689
229.769	689.4
230.148	697.6
230.527	715.4
230.905	691.4
231.284	695
231.664	681.4
232.043	699.6
232.422	696.6
232.801	681.6
233.181	697
233.56	688
233.94	691.6
234.319	668.2
234.699	692
235.079	741.8
235.458	737.8
235.838	700
236.218	679.2
236.598	673.2
236.978	680
237.358	682.2
237.738	686.2
238.119	691.4
238.499	680.2
238.88	699.8
239.26	705.8
239.641	665.6
240.021	684.8
240.402	687.4
240.783	682.8
241.163	685.2
241.544	689.6
241.925	688.8
242.306	697.4
242.687	690
243.069	699.4
243.45	705.4
243.831	686
244.212	691.2
244.594	725.6
244.975	696.6
245.357	689.2
245.739	680.4
246.12	687
246.502	709.2
246.884	691.8
247.266	689.6
247.648	691
248.03	711.4
248.412	694.8
248.794	696.8
249.176	687.2
249.559	705.4
249.941	677.2
250.323	675.8
250.706	687
251.089	688.8
251.471	689
251.854	687.8
252.237	678.2
252.62	696
253.002	689
253.385	689.8
253.769	709.8
254.152	684.4
254.535	698.2
254.918	680
255.301	683
255.685	680.4
256.068	670
256.452	724.8
256.835	707.4
257.219	700.4
257.603	706.4
257.986	674.8
258.37	689.2
258.754	675.8
259.138	697.2
259.522	707.4
259.906	681
260.29	697.4
260.675	684
261.059	685
261.443	683.2
261.828	691.6
262.212	703.6
262.597	684.8
262.981	681.4
263.366	695.2
263.751	687.4
264.136	684.8
264.521	692.4
264.906	677.8
265.291	706
265.676	682
266.061	698.2
266.446	711.4
266.831	688
267.217	706.8
267.602	682.6
267.987	689.2
268.373	681
268.759	702.2
269.144	690.8
269.53	685.6
269.916	687
270.302	678.8
270.688	699.8
271.074	692.8
271.46	714
271.846	732
272.232	691.2
272.618	680.6
273.004	679.2
273.391	702.2
273.777	718
274.164	694
274.55	710.8
274.937	690.2
275.324	690.6
275.71	695.2
276.097	694
276.484	671
276.871	695.6
277.258	699.8
277.645	669.6
278.032	692
278.419	687.6
278.807	688.4
279.194	674.8
279.581	677.8
279.969	696.8
280.356	686.4
280.744	682.6
281.131	719.4
281.519	697.4
281.907	682.6
282.295	689.6
282.682	702.4
283.07	693.8
283.458	698.2
283.846	706.6
284.235	698.4
284.623	704.2
285.011	675.8
285.399	686
285.788	687
286.176	674.4
286.565	705.6
286.953	677.6
287.342	680.2
287.731	681
288.119	677.4
288.508	687.6
288.897	690.4
289.286	669.6
289.675	688.4
290.064	695.4
290.453	685
290.821	690
291.21	709
291.599	687.2
291.989	689.6
292.378	698.6
292.768	704.2
293.157	692.6
293.547	707.8
293.936	675.2
294.326	685
294.716	692.2
295.106	688.2
295.496	705
295.886	711.4
296.276	681.4
296.666	683
297.056	676.8
297.446	693
297.836	716.4
298.227	691.4
298.617	692.2
299.008	706.4
299.398	686.6
299.789	681.8
300.179	694.4
300.57	702.4
300.961	683.8
301.352	687.8
301.742	701.2
302.133	689.4
302.524	699.8
302.915	691
303.307	679.8
303.698	705.6
304.089	695.4
304.48	683
304.872	698
305.263	690.2
305.655	679
306.046	706.4
306.438	684.2
306.829	681.6
307.221	702
307.613	693.2
308.005	703.8
308.397	708.8
308.789	718.6
309.181	717.8
309.573	721
309.965	705
310.357	695.4
310.749	700
311.142	686.6
311.534	681.8
311.926	697.6
312.319	687.8
312.711	683.4
313.104	703
313.497	687.4
313.889	735.2
314.282	703.2
314.675	714.8
315.068	696.6
315.461	697.6
315.854	722.6
316.247	699.8
316.64	689
317.033	687.4
317.405	702.6
317.798	684.4
318.192	692.2
318.585	685
318.979	698.8
319.372	684
319.766	689.4
320.16	700.6
320.553	703.2
320.947	716.4
321.341	682.2
321.735	685
322.129	669.4
322.523	709.4
322.917	676.2
323.311	695.6
323.705	693.4
324.099	700
324.494	706.2
324.888	707.4
325.282	682
325.677	705.6
326.071	707
326.466	706.6
326.861	701.6
327.255	701.4
327.65	704.8
328.045	710
328.44	694.2
328.835	687.8
329.23	689
329.625	716.4
330.02	688.4
330.415	717
330.81	695
331.206	691.8
331.601	685
331.996	701.4
332.37	714.8
332.766	675.4
333.161	732.2
333.557	683.6
333.953	698.4
334.348	1025.2
334.744	702.6
335.14	678.6
335.536	684.2
335.932	707.8
336.328	697.6
336.724	710.6
337.12	694.4
337.516	693.6
337.913	686.4
338.309	700
338.705	690.6
339.102	706.6
339.498	675.2
339.895	712.6
340.291	689.6
340.688	712.8
341.085	685.4
341.481	698.8
341.878	688.4
342.275	719
342.672	681.8
343.069	681
343.466	673.8
343.842	703.4
344.239	681.8
344.636	693.2
345.033	683.4
345.431	682.2
345.828	688.4
346.225	683.4
346.623	727.4
347.02	691
347.418	700.8
347.816	707.4
348.213	687.2
348.611	693.4
349.009	681.2
349.407	698.8
349.805	681
350.203	679.4
350.601	703.8
350.999	693.2
351.397	753.2
351.795	691.4
352.193	697.4
352.57	694.2
352.969	702.8
353.367	677.6
353.766	681.8
354.164	690
354.563	707
354.961	688.6
355.36	686.8
355.759	693
356.158	676.8
356.557	677
356.956	681.6
357.355	680.6
357.754	689
358.153	693.2
358.552	718.8
358.951	683.2
359.35	699
359.75	686.6
360.149	669.4
360.527	669
360.926	675
361.326	690.6
361.726	677.8
362.125	673.8
362.525	696.2
362.925	688.8
363.325	685.6
363.724	687.4
364.124	688
364.524	665.2
364.924	677.6
365.324	700.2
365.725	668.6
366.125	688.6
366.525	683.4
366.904	671.8
367.304	662
367.705	706
368.105	703
368.506	673.4
368.906	687
369.307	682.2
369.708	699.6
370.108	674.2
370.509	697.4
370.91	679.6
371.311	678.4
371.712	689.6
372.113	681.6
372.514	680.6
372.894	684.2
373.295	681.8
373.696	697.4
374.097	704
374.499	720.6
374.9	692
375.301	681.8
375.703	687.4
376.105	676.8
376.506	694.6
376.908	687.2
377.309	677.2
377.711	683.8
378.113	675.4
378.493	684
378.895	676.4
379.297	694.4
379.699	678.4
380.102	686
380.504	679.6
380.906	675
381.308	706.6
381.71	671.8
382.113	695.4
382.515	683
382.918	684.2
383.299	678.4
383.701	694.2
384.104	691.2
384.507	658.2
384.909	686.4
385.312	665.2
385.715	677
386.118	664.8
386.521	664.8
386.924	692.8
387.327	672
387.709	668.6
388.112	664.6
388.515	679.2
388.918	671.6
389.322	687.8
389.725	673.6
390.129	701.6
390.532	678.8
390.936	677.6
391.339	672.2
391.743	681
392.125	671.2
392.529	704.6
392.933	696
393.337	677.8
393.74	679.4
394.144	693.4
394.548	682
394.953	686.4
395.357	687.2
395.761	672
396.144	681.4
396.548	678.2
396.952	675.2
397.357	681.6
397.761	677
398.166	679.4
398.57	682
398.975	665.8
399.379	690.4
399.763	738.6
400.168	680.8
400.572	685.8
400.977	677
401.382	710
401.787	693.8
402.192	705.4
402.597	699.6
403.002	669.8
403.386	684.6
403.791	702.2
404.197	681.2
404.602	679.6
405.007	680.2
405.413	675
405.818	676
406.224	681.8
406.608	668.8
407.014	677.6
407.42	706.2
407.825	678.2
408.231	691.4
408.637	682.2
409.043	696.8
409.449	669.4
409.834	677.8
410.24	683.2
410.646	699.8
411.052	695.6
411.458	682.4
411.865	696
412.271	699
412.677	684.2
413.062	686.6
413.469	676.8
413.875	705.8
414.282	691.8
414.689	686.6
415.095	683.4
415.502	675
415.888	688.6
416.294	667.2
416.701	734.4
417.108	670.4
417.515	694.6
417.923	681
418.33	711.8
418.715	694.4
419.123	686.8
419.53	679.4
419.937	688
420.345	696.4
420.752	685.2
421.16	702.8
421.546	689.2
421.953	694.2
422.361	677.4
422.769	676.8
423.177	672.8
423.585	714.6
423.992	707.2
424.379	691.2
424.787	701.6
425.195	711.8
425.603	673.2
426.011	690.8
426.419	693.4
426.806	682.4
427.214	682.2
427.623	688.2
428.031	698
428.44	688.6
428.848	699.6
429.235	701.8
429.644	683.8
430.053	683.2
430.461	709.6
430.87	716.2
431.279	699.2
431.666	678.8
432.075	690
432.484	693.2
432.893	688
433.302	709.8
433.711	741.8
434.099	691.4
434.508	685.6
434.918	677
435.327	690.2
435.737	693.4
436.125	680.2
436.534	693.6
436.944	683.6
437.353	689.6
437.763	710.2
438.173	668.8
438.561	696.8
438.971	661.4
439.381	686
439.791	683.4
440.201	661.8
440.589	680.4
440.999	687
441.409	681.8
441.819	673.4
442.23	694.2
442.619	689.6
443.029	676.8
443.439	694
443.85	695.8
444.26	702.8
444.649	698.2
445.06	685.8
445.471	671.4
445.881	685.4
446.292	697.6
446.682	700.8
447.092	663.2
447.503	745.8
447.914	685.8
448.325	684.4
448.715	678.2
449.126	670
449.537	683.6
449.948	678.2
450.338	681.8
450.75	686
451.161	680.4
451.572	693.8
451.984	682.8
452.374	659.6
452.786	684.6
453.197	685
453.609	687.6
453.999	665
454.411	667.2
454.823	685
455.235	685
455.647	665.2
456.037	689.2
456.449	661.4
456.862	679.4
457.274	689
457.665	669.6
458.077	675.4
458.489	717.2
458.902	682.4
459.293	679.2
459.705	674.4
460.118	675.6
460.53	684
460.921	675
461.334	675.4
461.747	684
462.16	700.6
462.551	687.4
462.964	686.8
463.377	675.4
463.79	683.2
464.182	687.4
464.595	673.4
465.008	681.6
465.421	679.2
465.813	682.4
466.226	685.6
466.64	670.4
467.053	732.8
467.445	690.6
467.859	694.2
468.272	680.6
468.686	694.8
469.078	684.4
469.492	664.4
469.906	677
470.298	692.4
470.712	672.4
471.126	740.8
471.54	659
471.933	670.8
472.347	667.4
472.761	668.4
473.175	667.4
473.568	677.4
473.982	669.6
474.397	677.6
474.79	675.2
475.204	686.4
475.619	673.4
476.033	680.2
476.426	672.2
476.841	671.2
477.256	706.4
477.649	671.8
478.064	670.2
478.479	671.4
478.872	671.6
479.287	664.8
479.702	666.4
480.118	677.2
480.511	668.8
480.927	676.4
481.342	669.8
481.736	682
482.151	672.4
482.566	689.6
482.96	680.4
483.376	685.6
483.792	670.6
484.186	680
484.602	662
485.017	674.8
485.412	671
485.827	685.8
486.243	676.4
486.638	705.2
487.054	687.2
487.47	687.4
487.865	671
488.281	665
488.697	665.6
489.092	663.8
489.508	665.8
489.925	684
490.32	659.2
490.736	683.2
491.153	673.6
491.548	678
491.964	690.4
492.381	655.2
492.776	671.8
493.193	666.6
493.61	679
494.006	668.8
494.422	672.6
494.84	661.2
495.235	690
495.652	676.6
496.069	671.6
496.465	662.8
496.883	674.6
497.3	698.4
497.696	672.2
498.113	676.6
498.509	663.2
498.927	669.6
499.344	673.4
499.741	670.4
500.158	677
500.576	694.4
500.973	667.2
501.39	662.6
501.787	665
502.205	676
502.623	667.6
503.02	655.4
503.438	673.8
503.856	666.4
504.253	675.2
504.671	677.8
505.068	671.8
505.486	671.2
505.905	693.2
506.302	679.4
506.72	680.8
507.118	655.2
507.536	677.4
507.955	677
508.352	671.4
508.771	679.6
509.169	689.6
509.587	669.4
510.006	676.6
510.404	658.6
510.823	666.4
511.221	668.4
511.64	677.4
512.038	689.8
512.457	666.6
512.877	668.4
513.275	667.2
513.694	667.4
514.092	652.2
514.512	672.8
514.91	660.4
515.33	669.4
515.749	673.2
516.148	675.8
516.568	682.6
516.966	665.2
517.386	669
517.785	662
518.205	666.6
518.603	663.2
519.024	650
519.444	672.4
519.843	679.6
520.263	685
520.662	677
521.082	672.8
521.481	668.4
521.902	684
522.301	672
522.722	674.6
523.121	664.2
523.542	664.6
523.963	674.6
524.362	672.6
524.783	666
525.183	671.2
525.604	668.2
526.003	661.4
526.425	658.2
526.824	683.2
527.246	680
527.646	682.4
528.067	665.8
528.467	666.4
528.888	671.2
529.289	666.4
529.71	664.8
530.11	666
530.532	664.6
530.932	650
531.354	652
531.755	701
532.176	683.2
532.577	664.6
532.999	672
533.4	653
533.822	674.8
534.223	672.8
534.645	665.2
535.046	663.6
535.468	667
535.869	689.4
536.292	663.4
536.693	713.2
537.115	668.2
537.516	662.4
537.939	658.2
538.34	691
538.742	682.8
539.165	677.6
539.566	674.6
539.989	655
540.391	669
540.814	661.2
541.216	675.6
541.639	676.8
542.041	679.4
542.464	669.8
542.866	671.2
543.268	659.6
543.691	669.8
544.093	679.2
544.517	693.2
544.919	663.6
545.343	699.8
545.745	660.2
546.147	676.8
546.571	665
546.974	658.6
547.398	671.8
547.8	688.2
548.224	669.2
548.627	664.6
549.03	683
549.454	664.4
549.857	652.4
550.281	665.2
550.684	667.6
551.087	683.8
551.512	668
551.915	676.6
552.34	676.6
552.743	669.8
553.146	669.4
553.571	675
553.975	691.8
554.399	666
554.803	723
555.207	669.8
555.632	661.6
556.036	665.4
556.461	658.4
556.865	673.6
557.268	663.8
557.694	669
558.098	675.4
558.502	670.8
558.927	665.2
559.332	673.2
559.736	668.8
560.162	673.6
560.566	663.4
560.992	677.8
561.396	673
561.801	669.4
562.227	669.2
562.631	662.6
563.036	673.6
563.462	677
563.867	667
564.272	650.8
564.698	667.6
565.103	662.4
565.508	688.4
565.935	667.4
566.34	663.6
566.745	678.4
567.172	665.8
567.577	689.8
567.982	669.4
568.409	669.2
568.815	663.6
569.22	659
569.626	668
570.053	656.4
570.459	673.4
570.865	677.6
571.292	675.4
571.698	668.6
572.104	654
572.531	663.2
572.937	674
573.343	659.6
573.75	667
574.177	670.6
574.583	681.4
574.99	670.2
575.396	679.8
575.824	670.6
576.231	674.2
576.637	662.8
577.065	692.4
577.472	659
577.879	666
578.286	682.4
578.714	661
579.121	663.8
579.528	671.2
579.935	676.2
580.364	664.4
580.771	661.2
581.178	661.2
581.585	667.8
582.014	675.2
582.421	648
582.829	664.2
583.236	674.6
583.644	659.6
584.073	657.4
584.481	671.8
584.889	665.2
585.296	666.2
585.726	669.4
586.134	654.6
586.542	662
586.95	684.6
587.358	655.6
587.787	663.6
588.196	657
588.604	664
589.012	664.4
589.421	654.6
589.851	665.8
590.259	668.2
590.668	661.6
591.076	715.6
591.485	653.6
591.894	660.4
592.324	674.4
592.733	677.2
593.142	656.6
593.551	666.4
593.96	708.8
594.369	644.6
594.8	656.6
595.209	662.6
595.618	647.4
596.028	658.2
596.437	649.8
596.847	661.6
597.256	666.4
597.687	671.2
598.097	659.6
598.507	650.6
598.917	670.8
599.327	664.4
599.736	664
600.146	675.6
600.556	655.2
600.988	673.6
601.398	661.8
601.808	675.4
602.219	651.2
602.629	669.2
603.039	674
603.45	697.4
603.86	670.6
604.271	677
604.703	663.8
605.114	673.4
605.525	663
605.935	672.6
606.346	686.8
606.757	673.6
607.168	664.2
607.579	662.6
607.99	677.4
608.402	665.8
608.813	670.8
609.224	662
609.636	657.2
610.047	655.6
610.48	660.8
610.892	671.6
611.303	679
611.715	663.6
612.127	663
612.539	663.2
612.95	678.2
613.362	654.4
613.774	652.4
614.186	660
614.599	660.4
615.011	676
615.423	666
615.835	652
616.248	652
616.66	670
617.073	650.2
617.485	666.6
617.898	670
618.311	670.2
618.723	663
619.136	685.8
619.549	677.8
619.962	682.2
620.375	655
620.788	666.4
621.201	654.2
621.614	673.8
622.028	665.6
622.441	665
622.854	679.2
623.268	661.6
623.681	674
624.095	666.6
624.509	665.6
624.922	671
625.336	665.6
625.728	666.6
626.142	676
626.556	684
626.97	671.2
627.384	665.6
627.799	658.8
628.213	685.4
628.627	662.8
629.041	663.8
629.456	665.4
629.87	659.4
630.285	668.6
630.699	682.8
631.093	658
631.507	673.6
631.922	669.2
632.337	675.2
632.752	665.4
633.167	664.6
633.582	649
633.997	652.2
634.412	653.2
634.806	659.8
635.221	650.8
635.637	666.2
636.052	654.2
636.468	653.8
636.883	690
637.299	653.8
637.715	646
638.109	652.8
638.525	651
638.941	673.8
639.357	668
639.773	670.6
640.189	656.4
640.584	659.2
641	663.4
641.416	640.6
641.832	662.2
642.249	659
642.665	671.8
643.06	679.6
643.477	669.2
643.894	654.8
644.31	663.4
644.727	664
645.123	664.2
645.54	651.6
645.957	673.4
646.374	687.8
646.77	669.4
647.187	700.2
647.604	671.2
648.021	654.4
648.439	665.4
648.835	671.2
649.252	670
649.67	662.6
650.088	665.6
650.484	671.8
650.902	677.6
651.32	675.6
651.738	668.8
652.134	666
652.552	686.4
652.971	673.4
653.389	664.2
653.786	676.8
654.204	689.2
654.622	659.2
655.019	661.2
655.438	665.4
655.857	661.4
656.275	675
656.673	663.8
657.091	800.4
657.51	658.4
657.908	674.8
658.327	682
658.746	658.4
659.144	657
659.563	679.8
659.982	661.8
660.38	649.4
660.8	669
661.219	678.6
661.617	667.8
662.037	664.4
662.457	680.8
662.855	646.8
663.275	698.4
663.695	672.4
664.094	663.4
664.514	668.8
664.934	654
665.333	665.2
665.753	666
666.152	657.4
666.572	653.4
666.993	674.8
667.392	658.2
667.812	661
668.212	662
668.632	669.4
669.053	660.4
669.453	670.2
669.874	666
670.273	672.8
670.694	656.4
671.116	672.6
671.515	672.4
671.937	669.8
672.337	652.4
672.758	655.4
673.158	668.2
673.58	654.8
673.98	663.8
674.402	675.6
674.824	662.8
675.224	659.6
675.646	657.6
676.047	655.2
676.469	665.2
676.869	667.4
677.292	664.8
677.693	656
678.115	662.2
678.516	666.6
678.939	671.8
679.34	670
679.762	666.4
680.164	665.8
680.586	654
680.988	674.2
681.411	692.2
681.812	658.8
682.236	655.6
682.637	655.6
683.061	656.2
683.462	661.2
683.864	658.6
684.288	661.2
684.69	657.8
685.114	682.6
685.516	680.2
685.94	657.2
686.342	677.2
686.766	656.6
687.168	655
687.571	681.2
687.995	657.2
688.398	637.8
688.822	664.4
689.225	686.2
689.628	683.8
690.052	659.8
690.456	671.2
690.88	666.4
691.284	660.4
691.687	672
692.112	655.6
692.515	653.2
692.919	654.2
693.344	656.4
693.747	654.8
694.173	657
694.577	677.2
694.98	652.8
695.406	661.4
695.81	659.8
696.214	662
696.64	666.2
697.044	666.8
697.448	670.8
697.874	659.6
698.279	656.6
698.684	654.2
699.11	662.2
699.514	655.2
699.919	655.2
700.324	648.8
700.75	662.2
701.156	650.6
701.561	674.6
701.987	665.2
702.393	674.4
702.798	669.8
703.203	662.2
703.63	654.2
704.036	651.8
704.442	657.8
704.847	642.2
705.274	659
705.68	670.2
706.086	669.4
706.492	654.8
706.92	671.2
707.326	671.2
707.732	657.4
708.139	653.6
708.545	654.8
708.973	657
709.38	656.4
709.786	645.2
710.193	679.4
710.6	666.6
711.028	647.8
711.435	668.4
711.842	663.8
712.249	658.8
712.656	662.2
713.064	669
713.492	658.2
713.9	666.8
714.307	660.6
714.715	666.6
715.123	661.2
715.53	664.2
715.938	668.2
716.367	660.6
716.775	652
717.184	657.8
717.592	658.4
718	673.8
718.408	706.2
718.816	711.2
719.225	669.8
719.633	660.2
720.042	647.4
720.472	654.4
720.881	676.8
721.29	664.6
721.699	656.6
722.108	664.8
722.517	665.6
722.926	649.4
723.335	670.8
723.744	659.8
724.154	668.4
724.563	660.2
724.973	667
725.382	667.2
725.792	656
726.202	649.2
726.612	685.6
727.022	666.6
727.432	661.2
779.813	653.2
780.223	714.6
780.634	655
781.044	652
781.454	667.6
781.865	672.2
782.276	649
782.686	674.2
783.097	654.8
783.508	648.2
783.919	661.6
784.33	671.4
784.741	671
785.152	656.6
785.563	635.8
785.974	652.8
786.386	664.2
786.776	658.8
787.188	657.8
787.599	646.2
788.011	663.2
788.423	663.2
788.835	648.4
789.247	637.8
789.659	650.6
790.071	649.4
790.483	701.8
790.874	649.8
791.286	660.4
791.699	643
792.111	651.6
792.524	660.4
792.937	659
793.349	654.6
793.741	647.4
794.154	644
794.567	673
794.98	649.4
795.393	646.8
795.785	672.6
796.198	650.4
796.612	659.6
797.026	659.4
797.439	635.6
797.831	656.6
798.245	648
798.659	647.4
799.073	654
799.487	647.6
799.88	660.6
800.294	656.6
800.708	661
801.123	668.2
801.516	670
801.93	653.2
802.345	648.2
802.76	662.2
803.153	678.4
803.568	674.4
803.983	667.2
804.377	664
804.792	649.4
805.207	643.6
805.601	666
806.016	700
806.432	644.8
806.826	693.8
807.242	684.8
807.658	656
808.052	659
808.468	661.4
808.884	656.8
809.279	656.8
809.695	670.2
810.111	682.8
810.506	659
810.922	686.2
811.339	658.4
811.734	666.2
812.151	661.6
812.546	661
812.963	657.2
813.38	663.4
813.776	656.8
814.193	681.4
814.589	648.6
815.006	653.8
815.402	649.6
815.82	655.6
816.237	653.8
816.633	659.4
817.051	648.6
817.448	664.6
817.866	649
818.262	680
818.68	657.8
819.077	656.8
819.495	662
819.892	706
820.311	659.2
820.708	650.4
821.127	649.6
821.524	668.4
821.943	665.8
822.34	686
822.759	664.8
823.157	659.6
823.576	670.6
823.974	664.6
824.393	731.4
824.791	653.8
825.189	645.8
825.609	658.2
826.007	659.2
826.427	644.6
826.826	658
827.246	663.8
827.644	639
828.043	675.6
828.463	647.2
828.862	662.6
829.261	662.2
829.682	638.2
830.081	657.6
830.502	648.2
830.901	666.2
831.301	645.8
831.722	651.2
832.121	656.8
832.521	653.4
832.943	655.4
833.342	663.6
833.742	643.6
834.164	656
834.564	646.2
834.965	649.8
835.386	658.6
835.787	658.4
836.188	658
836.588	665.4
837.01	656
837.411	655.2
837.812	673.2
838.213	653.8
838.636	652.2
839.037	735
839.438	669.6
839.84	657.6
840.263	674.6
840.664	660.8
841.066	655
841.468	664.8
841.891	647.2
842.293	670.6
842.695	657
843.098	671.2
843.5	665.8
843.902	665.8
844.326	664.8
844.729	654.6
845.131	671.4
845.534	662
845.937	673
846.34	678.8
846.764	649
847.167	662
847.571	644.8
847.974	654.2
848.377	656.2
848.781	704.2
849.184	666.4
849.588	656.6
849.992	654.2
850.396	651
850.821	675.6
851.225	650
851.63	660.2
852.034	673.8
852.438	650
852.843	699.4
853.247	648.8
853.652	648.6
854.057	676.8
854.462	656.6
854.867	661.6
855.272	689
855.677	656.8
856.082	648.6
