#lambda/nm	C1
208.295	537
208.67	488.6
209.045	460
209.419	454.2
209.794	688.6
210.169	671.8
210.544	809
210.919	687.8
211.295	675
211.67	688
212.045	684.4
212.421	677.8
212.796	733
213.172	682.4
213.547	679.4
213.923	680
214.299	683.2
214.675	696.8
215.051	692
215.427	689.4
215.803	701
216.179	694.2
216.555	674.6
216.932	688.8
217.308	683.8
217.684	677.4
218.061	692.6
218.438	692
218.814	673
219.191	689.2
219.568	684.8
219.945	684.6
220.322	694.4
220.699	690.8
221.076	699.4
221.453	704.4
221.83	673.6
222.208	684.4
222.585	680
222.962	692.8
223.34	688.4
223.717	693
224.095	683.8
224.473	687
224.851	677.4
225.229	680
225.607	713.4
225.985	672
226.363	688.6
226.741	687.8
227.119	690.8
227.497	695.4
227.876	678.4
228.254	696.8
228.633	688.4
229.011	691.8
229.39	694.2
229.769	692.4
230.148	701.6
230.527	709
230.905	686.8
231.284	688.8
231.664	685.6
232.043	698
232.422	698.2
232.801	688
233.181	697.2
233.56	681.6
233.94	693.2
234.319	678
234.699	684.8
235.079	729.6
235.458	729
235.838	714.2
236.218	687.4
236.598	678.2
236.978	684.2
237.358	680.6
237.738	684.4
238.119	692.2
238.499	669.8
238.88	688.2
239.26	707
239.641	679.4
240.021	685.4
240.402	693.6
240.783	687
241.163	685.4
241.544	687.2
241.925	692.8
242.306	707
242.687	682.4
243.069	685.6
243.45	702
243.831	686.6
244.212	684.4
244.594	728.2
244.975	694.6
245.357	688.2
245.739	684.6
246.12	688.2
246.502	704.4
246.884	680
247.266	691.4
247.648	695
248.03	729.4
248.412	691.8
248.794	687.6
249.176	685.6
249.559	703.8
249.941	688.2
250.323	687.6
250.706	683
251.089	682
251.471	693.6
251.854	681.8
252.237	687.2
252.62	698.2
253.002	687.4
253.385	687.8
253.769	699.2
254.152	686.8
254.535	696.6
254.918	679.8
255.301	684.4
255.685	688.4
256.068	684.6
256.452	715.2
256.835	692.4
257.219	701.6
257.603	693
257.986	675.4
258.37	693.4
258.754	676.4
259.138	697.8
259.522	695.8
259.906	682.6
260.29	695.4
260.675	685.6
261.059	687.4
261.443	676.2
261.828	689
262.212	691.6
262.597	674.8
262.981	678.4
263.366	696.4
263.751	680.2
264.136	683
264.521	678.4
264.906	682.2
265.291	696.8
265.676	688
266.061	696.2
266.446	705.2
266.831	689
267.217	717.4
267.602	692.4
267.987	696
268.373	684
268.759	704
269.144	695.2
269.53	687.8
269.916	680
270.302	687.2
270.688	695.4
271.074	689.2
271.46	710.8
271.846	725.4
272.232	696.8
272.618	679.6
273.004	685.8
273.391	697.6
273.777	708.8
274.164	684.8
274.55	705.6
274.937	697
275.324	683.8
275.71	691.8
276.097	693
276.484	677
276.871	690.2
277.258	698
277.645	667.8
278.032	681
278.419	676
278.807	687.8
279.194	672.4
279.581	671.8
279.969	694
280.356	681.4
280.744	686.6
281.131	713
281.519	695.8
281.907	678.4
282.295	681.2
282.682	697.2
283.07	689.2
283.458	691.4
283.846	697
284.235	699.2
284.623	687.6
285.011	681.2
285.399	688.2
285.788	690.6
286.176	678.6
286.565	705.2
286.953	693.6
287.342	682.8
287.731	687
288.119	684.4
288.508	676.8
288.897	687.4
289.286	676.8
289.675	691.6
290.064	704.8
290.453	694.2
290.821	687
291.21	703.4
291.599	681.2
291.989	697
292.378	706.4
292.768	716
293.157	693
293.547	694.2
293.936	679.2
294.326	684.8
294.716	696.2
295.106	688.6
295.496	698.4
295.886	692
296.276	685
296.666	687.8
297.056	687.6
297.446	673.4
297.836	718.2
298.227	687.4
298.617	695.4
299.008	713
299.398	684
299.789	689.2
300.179	692.6
300.57	703.4
300.961	688.2
301.352	686
301.742	702.4
302.133	686
302.524	694
302.915	683.2
303.307	682.6
303.698	701.8
304.089	697.2
304.48	675.6
304.872	697.2
305.263	692
305.655	681.8
306.046	702.8
306.438	696.2
306.829	683.8
307.221	705.6
307.613	705
308.005	703.6
308.397	714.6
308.789	715.4
309.181	723.8
309.573	715.4
309.965	706.2
310.357	693.6
310.749	711.4
311.142	683.8
311.534	688.4
311.926	712.2
312.319	691.4
312.711	696.6
313.104	714
313.497	691.2
313.889	733.6
314.282	705.4
314.675	722.2
315.068	688
315.461	703
315.854	731.8
316.247	707
316.64	690.4
317.033	697.8
317.405	717.6
317.798	692.2
318.192	698.2
318.585	681.4
318.979	704.8
319.372	688
319.766	692.8
320.16	700.4
320.553	712
320.947	718.8
321.341	689.4
321.735	697.8
322.129	672.2
322.523	712.8
322.917	686
323.311	704.8
323.705	692.6
324.099	696.8
324.494	711.6
324.888	707.2
325.282	689.2
325.677	711.2
326.071	700.8
326.466	703
326.861	690.2
327.255	709.2
327.65	705.4
328.045	706.4
328.44	701
328.835	685.4
329.23	678.2
329.625	718.2
330.02	683
330.415	721.2
330.81	699
331.206	699.2
331.601	695
331.996	689.6
332.37	721
332.766	675.6
333.161	721
333.557	688.8
333.953	692.2
334.348	1085
334.744	699.8
335.14	686.8
335.536	688.8
335.932	706.8
336.328	702.6
336.724	707
337.12	687.6
337.516	698.2
337.913	697
338.309	707.4
338.705	693.4
339.102	713.2
339.498	688.4
339.895	715.4
340.291	683.8
340.688	700.2
341.085	683.4
341.481	695
341.878	701.4
342.275	711.8
342.672	689.4
343.069	685.8
343.466	678
343.842	707.6
344.239	679
344.636	694.4
345.033	674.4
345.431	684
345.828	693
346.225	696.6
346.623	728.4
347.02	689
347.418	698.2
347.816	705.6
348.213	683.4
348.611	701.4
349.009	682.4
349.407	709.4
349.805	673.8
350.203	679
350.601	707.4
350.999	683
351.397	777.2
351.795	689.2
352.193	704.8
352.57	700.4
352.969	702.2
353.367	682.6
353.766	681.2
354.164	689.4
354.563	705.4
354.961	693
355.36	681
355.759	691
356.158	685.6
356.557	673.8
356.956	683.6
357.355	671.6
357.754	696.2
358.153	701
358.552	723.8
358.951	684.4
359.35	704.4
359.75	687.8
360.149	680.6
360.527	669.4
360.926	680.4
361.326	694.4
361.726	679.4
362.125	677.8
362.525	701.8
362.925	678.4
363.325	685.8
363.724	688.6
364.124	681.2
364.524	680.2
364.924	679.4
365.324	702.6
365.725	668.4
366.125	693.6
366.525	685.6
366.904	677
367.304	662.8
367.705	699
368.105	697.8
368.506	680.8
368.906	684.8
369.307	682.2
369.708	691.4
370.108	660.2
370.509	691.2
370.91	677.2
371.311	692.4
371.712	690.6
372.113	688.2
372.514	673.6
372.894	672.6
373.295	678
373.696	693.8
374.097	693.2
374.499	715
374.9	687.4
375.301	679.2
375.703	692.8
376.105	665.6
376.506	683.8
376.908	681.2
377.309	684
377.711	684.6
378.113	675
378.493	673.8
378.895	684.4
379.297	690.4
379.699	677.8
380.102	689
380.504	684.6
380.906	679.6
381.308	709
381.71	684.2
382.113	686.4
382.515	678.2
382.918	683.6
383.299	673.4
383.701	686.4
384.104	679
384.507	657.6
384.909	674.2
385.312	649.4
385.715	664
386.118	675.6
386.521	660
386.924	690
387.327	672
387.709	661.8
388.112	658.2
388.515	680.2
388.918	676.2
389.322	680.4
389.725	682.2
390.129	705.4
390.532	684.2
390.936	682.2
391.339	669
391.743	689
392.125	674.4
392.529	691.6
392.933	693
393.337	679.2
393.74	677.4
394.144	686.6
394.548	670.2
394.953	678
395.357	684.6
395.761	678.6
396.144	684.2
396.548	681.2
396.952	682.6
397.357	678.4
397.761	671.8
398.166	675.2
398.57	679.4
398.975	672.2
399.379	691.6
399.763	736.6
400.168	688.4
400.572	672
400.977	677.8
401.382	708.2
401.787	704.4
402.192	704.4
402.597	699.6
403.002	671.6
403.386	688
403.791	708.8
404.197	674
404.602	677.4
405.007	675.8
405.413	670.4
405.818	671
406.224	674.2
406.608	678.6
407.014	672.8
407.42	709
407.825	671.2
408.231	697
408.637	684.4
409.043	696.6
409.449	678.6
409.834	678.6
410.24	696.4
410.646	694
411.052	689.8
411.458	688.2
411.865	699.8
412.271	693.6
412.677	682.8
413.062	695.2
413.469	678.4
413.875	703.6
414.282	696.6
414.689	684.2
415.095	699.4
415.502	677.2
415.888	681.2
416.294	668
416.701	726.8
417.108	677.8
417.515	697.2
417.923	685.2
418.33	709
418.715	697.2
419.123	676.2
419.53	675.6
419.937	692.4
420.345	698.4
420.752	692.2
421.16	701.2
421.546	686.2
421.953	700.4
422.361	677.8
422.769	688
423.177	670
423.585	719.6
423.992	697
424.379	693
424.787	692.6
425.195	713.4
425.603	684
426.011	702.6
426.419	707.8
426.806	677
427.214	687.6
427.623	701.4
428.031	698.4
428.44	691.6
428.848	701.2
429.235	702.8
429.644	681
430.053	683.2
430.461	704.2
430.87	716.2
431.279	695.8
431.666	678.2
432.075	689.6
432.484	698.6
432.893	686.4
433.302	704.4
433.711	742.6
434.099	693.8
434.508	686.2
434.918	672.8
435.327	694.4
435.737	690.8
436.125	689.6
436.534	696
436.944	694.2
437.353	687
437.763	712
438.173	684.4
438.561	698
438.971	664.2
439.381	691
439.791	696.6
440.201	659.8
440.589	690.2
440.999	700.6
441.409	683.8
441.819	672.6
442.23	702.6
442.619	695.4
443.029	686.8
443.439	692.2
443.85	698.8
444.26	698.2
444.649	697.2
445.06	682.4
445.471	671.6
445.881	690.8
446.292	701.8
446.682	708.2
447.092	666.4
447.503	747
447.914	681.8
448.325	682.4
448.715	684.8
449.126	676
449.537	688.2
449.948	682.8
450.338	685
450.75	697.4
451.161	686.8
451.572	696.8
451.984	680.4
452.374	668.2
452.786	680.6
453.197	685.4
453.609	696
453.999	674
454.411	674
454.823	693
455.235	681.4
455.647	679.6
456.037	676.8
456.449	665
456.862	680
457.274	671.2
457.665	664.6
458.077	682
458.489	712.4
458.902	673.8
459.293	691.8
459.705	681
460.118	667.2
460.53	686.6
460.921	682.6
461.334	689
461.747	680.8
462.16	699
462.551	695.8
462.964	689.2
463.377	665.4
463.79	677.2
464.182	688.6
464.595	673.4
465.008	682.4
465.421	688.6
465.813	672.2
466.226	683.6
466.64	678
467.053	728.6
467.445	693
467.859	696.6
468.272	675.6
468.686	688.2
469.078	674.6
469.492	674.4
469.906	689.6
470.298	688.2
470.712	670.8
471.126	738.8
471.54	666.4
471.933	672.4
472.347	666.4
472.761	677
473.175	655.8
473.568	662.4
473.982	658.2
474.397	680
474.79	684.2
475.204	683.4
475.619	668
476.033	678.2
476.426	675
476.841	661
477.256	704.8
477.649	667.2
478.064	669.2
478.479	663.8
478.872	669.6
479.287	656.6
479.702	665.8
480.118	676
480.511	669.6
480.927	670
481.342	667.8
481.736	673.8
482.151	667
482.566	684
482.96	669.8
483.376	685.2
483.792	666.8
484.186	677.2
484.602	673.8
485.017	669.4
485.412	674.8
485.827	679.2
486.243	663.8
486.638	698
487.054	687.6
487.47	687.8
487.865	660.6
488.281	663.4
488.697	660.6
489.092	672
489.508	657.4
489.925	679.4
490.32	653
490.736	681.6
491.153	679
491.548	667.4
491.964	678.4
492.381	659.8
492.776	681
493.193	676
493.61	681.8
494.006	675.8
494.422	684.4
494.84	664
495.235	684.6
495.652	672.8
496.069	670.6
496.465	664.4
496.883	675.2
497.3	705.4
497.696	677.6
498.113	685.4
498.509	669.8
498.927	669.2
499.344	668
499.741	662.8
500.158	674.2
500.576	687.2
500.973	679.8
501.39	667.2
501.787	666.6
502.205	685
502.623	672.8
503.02	653.4
503.438	666.8
503.856	671.2
504.253	685.4
504.671	675
505.068	670.2
505.486	670.2
505.905	700.2
506.302	674
506.72	681.6
507.118	663.4
507.536	665.2
507.955	674.2
508.352	661
508.771	684
509.169	670.6
509.587	671.4
510.006	675.8
510.404	654.6
510.823	661.2
511.221	668.6
511.64	672.8
512.038	688.6
512.457	667
512.877	667.8
513.275	669
513.694	666.6
514.092	664.2
514.512	668.6
514.91	670.8
515.33	666.8
515.749	677.8
516.148	684.2
516.568	677.2
516.966	667.4
517.386	672.4
517.785	664.8
518.205	667.4
518.603	662.2
519.024	661
519.444	671.4
519.843	680
520.263	683.6
520.662	673.6
521.082	671.8
521.481	676
521.902	671.4
522.301	678
522.722	675.2
523.121	673
523.542	679.8
523.963	676.8
524.362	677.4
524.783	664.8
525.183	670.2
525.604	684.2
526.003	658.4
526.425	663.2
526.824	676.6
527.246	681.8
527.646	678
528.067	678.6
528.467	674.8
528.888	682.6
529.289	668
529.71	663
530.11	667.8
530.532	655.2
530.932	659.8
531.354	658.8
531.755	708.6
532.176	674.8
532.577	662.2
532.999	672.8
533.4	660.6
533.822	678
534.223	667.4
534.645	671.8
535.046	665.2
535.468	671.2
535.869	686.2
536.292	663.2
536.693	707.2
537.115	667.8
537.516	664
537.939	675.2
538.34	687.6
538.742	674.4
539.165	677.6
539.566	670
539.989	656.6
540.391	667.2
540.814	668.8
541.216	669
541.639	668.4
542.041	681.2
542.464	665.6
542.866	661.4
543.268	656.8
543.691	673.8
544.093	680
544.517	696.8
544.919	662.4
545.343	703
545.745	672
546.147	675.4
546.571	668.8
546.974	656.8
547.398	673.4
547.8	681.4
548.224	664
548.627	656.8
549.03	686.6
549.454	660.6
549.857	658.6
550.281	662.2
550.684	670.8
551.087	676.8
551.512	675.4
551.915	679.2
552.34	674.8
552.743	667
553.146	672.6
553.571	668.6
553.975	697.4
554.399	657.4
554.803	731.2
555.207	666.8
555.632	662.6
556.036	672.6
556.461	661.8
556.865	676.4
557.268	658.8
557.694	669
558.098	673.4
558.502	674
558.927	666
559.332	670.8
559.736	670.2
560.162	673.8
560.566	662.8
560.992	662.8
561.396	670.2
561.801	667.2
562.227	665.2
562.631	667.4
563.036	667
563.462	675.4
563.867	672.4
564.272	651
564.698	680.4
565.103	661.6
565.508	683.6
565.935	667.2
566.34	661.4
566.745	680.4
567.172	672
567.577	689.6
567.982	675.8
568.409	673
568.815	660.4
569.22	665.4
569.626	682.8
570.053	660.4
570.459	680
570.865	675.2
571.292	679.6
571.698	674.4
572.104	652.4
572.531	663.8
572.937	677.4
573.343	669
573.75	662.6
574.177	668.2
574.583	675
574.99	673
575.396	673.4
575.824	662.8
576.231	670.4
576.637	652.2
577.065	693.6
577.472	658.4
577.879	654.4
578.286	680.2
578.714	659.4
579.121	663.6
579.528	666.6
579.935	681.2
580.364	664.6
580.771	643
581.178	662
581.585	671.2
582.014	676.2
582.421	663.2
582.829	662.8
583.236	675.8
583.644	657.4
584.073	669.8
584.481	679.6
584.889	667.4
585.296	680.2
585.726	672.2
586.134	659
586.542	658.2
586.95	692.8
587.358	661.8
587.787	668
588.196	657.2
588.604	663.4
589.012	668.2
589.421	659.8
589.851	653
590.259	665.4
590.668	660
591.076	706
591.485	649.2
591.894	652.8
592.324	680.4
592.733	669.2
593.142	645.2
593.551	649.8
593.96	661.6
594.369	650.8
594.8	652.4
595.209	668.4
595.618	638.4
596.028	661.8
596.437	649
596.847	661.4
597.256	664.4
597.687	669.8
598.097	664.2
598.507	650
598.917	670.8
599.327	681.8
599.736	659.8
600.146	680.2
600.556	667.8
600.988	684.8
601.398	665.6
601.808	687.6
602.219	652
602.629	665.4
603.039	676.8
603.45	690.6
603.86	668.6
604.271	687.8
604.703	664.8
605.114	671.4
605.525	671.8
605.935	669
606.346	693.2
606.757	683.8
607.168	669
607.579	663.8
607.99	682
608.402	668.2
608.813	674.8
609.224	658
609.636	658
610.047	652.8
610.48	666.2
610.892	675.6
611.303	685.4
611.715	663
612.127	661.2
612.539	659.2
612.95	662.8
613.362	652
613.774	662.4
614.186	661.2
614.599	657.8
615.011	676.4
615.423	665.8
615.835	648.4
616.248	650.4
616.66	674.2
617.073	655.4
617.485	664
617.898	671.2
618.311	669.4
618.723	656.8
619.136	693.8
619.549	674
619.962	683.6
620.375	662
620.788	676
621.201	658.6
621.614	668.4
622.028	673.6
622.441	664.8
622.854	682.6
623.268	651.2
623.681	660.2
624.095	659.2
624.509	666.4
624.922	674.2
625.336	659.2
625.728	666
626.142	680.4
626.556	683.4
626.97	668
627.384	654.8
627.799	663.2
628.213	675.2
628.627	665
629.041	669.2
629.456	663.4
629.87	658.2
630.285	672.4
630.699	670.4
631.093	662
631.507	667.2
631.922	674.8
632.337	685.8
632.752	655.6
633.167	665.8
633.582	663
633.997	660.8
634.412	661
634.806	653.6
635.221	663
635.637	677.8
636.052	654.6
636.468	668.4
636.883	689.6
637.299	657.2
637.715	652.6
638.109	656
638.525	641.6
638.941	675.8
639.357	667.2
639.773	678
640.189	652.2
640.584	656.6
641	671.4
641.416	659.6
641.832	658.8
642.249	666.2
642.665	664.8
643.06	662.4
643.477	674.2
643.894	649
644.31	658.2
644.727	662.2
645.123	661.8
645.54	651.4
645.957	663.8
646.374	683.6
646.77	663.2
647.187	698.8
647.604	661.8
648.021	644.2
648.439	649.8
648.835	668.6
649.252	662.8
649.67	673
650.088	658
650.484	662.6
650.902	673.2
651.32	669.2
651.738	662.4
652.134	670
652.552	693.8
652.971	672.4
653.389	662.4
653.786	681.8
654.204	691.6
654.622	650.4
655.019	665.2
655.438	671
655.857	682
656.275	681
656.673	651.4
657.091	745.2
657.51	657.4
657.908	671.4
658.327	682.2
658.746	648
659.144	664
659.563	682.8
659.982	663.4
660.38	649.4
660.8	670
661.219	681.8
661.617	669
662.037	670.2
662.457	680
662.855	653.8
663.275	697.6
663.695	656
664.094	661.2
664.514	662
664.934	657
665.333	673
665.753	657.6
666.152	653.6
666.572	655.4
666.993	677.4
667.392	663.6
667.812	666
668.212	663.8
668.632	674
669.053	660.2
669.453	673.6
669.874	659.6
670.273	663.6
670.694	647
671.116	678.8
671.515	679.6
671.937	667
672.337	659.2
672.758	664.4
673.158	672.8
673.58	643.6
673.98	671.4
674.402	671
674.824	670
675.224	656.6
675.646	650.8
676.047	659.2
676.469	652.6
676.869	672.6
677.292	667.6
677.693	655.8
678.115	654
678.516	670.6
678.939	669.4
679.34	657.4
679.762	676.4
680.164	670.8
680.586	647.8
680.988	670.4
681.411	684.2
681.812	656.6
682.236	653.6
682.637	652.6
683.061	644.8
683.462	675.4
683.864	658.6
684.288	671.6
684.69	656.2
685.114	675.8
685.516	668
685.94	651.6
686.342	676.4
686.766	650.8
687.168	653.8
687.571	679.6
687.995	671.8
688.398	647
688.822	656.4
689.225	676.2
689.628	683.2
690.052	669.4
690.456	665.2
690.88	659.6
691.284	647
691.687	669.2
692.112	655.8
692.515	655.8
692.919	659.4
693.344	671.4
693.747	660.2
694.173	644.6
694.577	670.4
694.98	654.4
695.406	646
695.81	665
696.214	662.6
696.64	659
697.044	650
697.448	659.4
697.874	657.8
698.279	651
698.684	645.6
699.11	648.2
699.514	655.6
699.919	647.8
700.324	645.2
700.75	669.4
701.156	659.8
701.561	670.8
701.987	668.4
702.393	674.2
702.798	663.2
703.203	653.8
703.63	660.4
704.036	658
704.442	659.2
704.847	656
705.274	664.6
705.68	672
706.086	674
706.492	652.8
706.92	666.4
707.326	667.8
707.732	672
708.139	651.6
708.545	659.4
708.973	642.4
709.38	664.2
709.786	650
710.193	677
710.6	671.2
711.028	658.6
711.435	651.8
711.842	663.8
712.249	654.2
712.656	656.6
713.064	683.6
713.492	650.8
713.9	658.4
714.307	662.8
714.715	667
715.123	658
715.53	656
715.938	674
716.367	667.8
716.775	658.8
717.184	644.4
717.592	656.2
718	669.4
718.408	706
718.816	711.2
719.225	661.2
719.633	663.4
720.042	660.2
720.472	663.8
720.881	683.6
721.29	663.2
721.699	659.8
722.108	661.8
722.517	655.6
722.926	658.6
723.335	669.2
723.744	671.4
724.154	660.8
724.563	673
724.973	670.2
725.382	657.4
725.792	655.8
726.202	655.6
726.612	683.2
727.022	669.4
727.432	657.4
779.813	651.2
780.223	710
780.634	659.6
781.044	656.8
781.454	661.6
781.865	679.2
782.276	649.4
782.686	680.4
783.097	656.4
783.508	653
783.919	662
784.33	678.8
784.741	676.8
785.152	660.2
785.563	651.6
785.974	653.6
786.386	671
786.776	654.8
787.188	660
787.599	650.2
788.011	668
788.423	662
788.835	655.4
789.247	654.8
789.659	659.2
790.071	654
790.483	709.4
790.874	653.8
791.286	664.2
791.699	649.2
792.111	659.2
792.524	658.2
792.937	650.6
793.349	648.2
793.741	650
794.154	657.8
794.567	682.4
794.98	651.8
795.393	650.8
795.785	663.6
796.198	655
796.612	659.2
797.026	652.6
797.439	634.6
797.831	654
798.245	642
798.659	660
799.073	650
799.487	652.4
799.88	654.6
800.294	657
800.708	658.8
801.123	661.6
801.516	672.4
801.93	645.4
802.345	634.2
802.76	662
803.153	673.8
803.568	666.8
803.983	670.4
804.377	662.8
804.792	652.4
805.207	643.4
805.601	665.2
806.016	696
806.432	657.8
806.826	681.2
807.242	678.8
807.658	664
808.052	652.8
808.468	650.2
808.884	651
809.279	663.2
809.695	669.4
810.111	682.8
810.506	665.2
810.922	691.8
811.339	661.6
811.734	674.8
812.151	651.6
812.546	645.8
812.963	644
813.38	664.4
813.776	651.4
814.193	685.6
814.589	652.8
815.006	655.4
815.402	655.6
815.82	653.6
816.237	654.2
816.633	656.8
817.051	652.4
817.448	659.6
817.866	644.8
818.262	675.2
818.68	658.4
819.077	647.2
819.495	659
819.892	704
820.311	647.6
820.708	650
821.127	657.8
821.524	671.8
821.943	666.8
822.34	679.2
822.759	659.8
823.157	656.2
823.576	669.6
823.974	672
824.393	776
824.791	652
825.189	649.8
825.609	649.8
826.007	655.8
826.427	635
826.826	656
827.246	667.6
827.644	641.4
828.043	674
828.463	650.2
828.862	663.6
829.261	667.8
829.682	649.2
830.081	671
830.502	652.4
830.901	660.2
831.301	654.6
831.722	641
832.121	661.2
832.521	651.6
832.943	653.6
833.342	653.4
833.742	648.6
834.164	656.2
834.564	645.4
834.965	649.4
835.386	652
835.787	650.2
836.188	653
836.588	661.8
837.01	655.2
837.411	652
837.812	667.2
838.213	654.4
838.636	652.8
839.037	734.2
839.438	659.8
839.84	661.6
840.263	667.6
840.664	658.4
841.066	653.4
841.468	657.6
841.891	647.8
842.293	668.6
842.695	663.6
843.098	673.8
843.5	655.4
843.902	660.6
844.326	657
844.729	650.2
845.131	664.4
845.534	659
845.937	678.2
846.34	679.4
846.764	651.2
847.167	660.6
847.571	643.2
847.974	660.6
848.377	648.2
848.781	703
849.184	672.4
849.588	641.6
849.992	649.4
850.396	648.4
850.821	670.4
851.225	652
851.63	650.8
852.034	670.4
852.438	646.8
852.843	696.2
853.247	642
853.652	650.8
854.057	668.6
854.462	652
854.867	659.2
855.272	685.8
855.677	663.8
856.082	658.6
856.487	643.8
856.893	655.4
857.298	661.2
