#lambda/nm	C1
208.295	537.6
208.67	490.8
209.045	451.4
209.419	456
209.794	688
210.169	672
210.544	813.2
210.919	696.2
211.295	675.8
211.67	689
212.045	683.4
212.421	682.4
212.796	731.8
213.172	688
213.547	680.8
213.923	685.2
214.299	682.6
214.675	699
215.051	695.4
215.427	694
215.803	707
216.179	692.8
216.555	686.4
216.932	687.4
217.308	689
217.684	688.4
218.061	697.8
218.438	691.4
218.814	679.8
219.191	703.4
219.568	676.2
219.945	680.8
220.322	693.2
220.699	692.2
221.076	702.6
221.453	687.8
221.83	671.2
222.208	682
222.585	680.8
222.962	688.2
223.34	690.8
223.717	689.2
224.095	681.8
224.473	679.8
224.851	679.6
225.229	679.4
225.607	703.6
225.985	676.6
226.363	693.8
226.741	688
227.119	679.8
227.497	703.2
227.876	680.4
228.254	692.2
228.633	692.4
229.011	694.8
229.39	695.4
229.769	693.8
230.148	701.2
230.527	708.2
230.905	685.4
231.284	691.2
231.664	677.2
232.043	701.2
232.422	687.8
232.801	685.2
233.181	695
233.56	683.8
233.94	690.4
234.319	672.2
234.699	680.4
235.079	733.2
235.458	728.6
235.838	706.2
236.218	673.4
236.598	669.2
236.978	676.2
237.358	677.2
237.738	676.8
238.119	697.4
238.499	668.4
238.88	683.6
239.26	701.4
239.641	675.8
240.021	675
240.402	689.4
240.783	686.2
241.163	686.2
241.544	678.2
241.925	689.8
242.306	706.4
242.687	674
243.069	679.8
243.45	690.2
243.831	682.2
244.212	681.4
244.594	731.6
244.975	697.4
245.357	691
245.739	688.6
246.12	690.6
246.502	702.2
246.884	685
247.266	679.6
247.648	690.6
248.03	716.8
248.412	692
248.794	686.2
249.176	681.6
249.559	702.6
249.941	680
250.323	679.4
250.706	689
251.089	690
251.471	693.2
251.854	689.4
252.237	682.4
252.62	703.2
253.002	684.2
253.385	688
253.769	705.8
254.152	679.8
254.535	698.4
254.918	680
255.301	686.6
255.685	686.8
256.068	677.8
256.452	709
256.835	700
257.219	695.4
257.603	713
257.986	679
258.37	693
258.754	674.8
259.138	706.2
259.522	702.4
259.906	694.6
260.29	697
260.675	689
261.059	685.2
261.443	677.4
261.828	704.4
262.212	692.8
262.597	665.2
262.981	683.8
263.366	693.8
263.751	689.4
264.136	687.2
264.521	686.2
264.906	682.2
265.291	704.8
265.676	689.8
266.061	692.6
266.446	704.6
266.831	690.4
267.217	707.2
267.602	700
267.987	695.2
268.373	691
268.759	709
269.144	698.6
269.53	685.6
269.916	675.4
270.302	687.4
270.688	701
271.074	692.2
271.46	706.2
271.846	735.6
272.232	689
272.618	683.6
273.004	687.2
273.391	704
273.777	703.4
274.164	698.6
274.55	713.4
274.937	694.4
275.324	685
275.71	697.8
276.097	692
276.484	685.2
276.871	693
277.258	698.2
277.645	669.4
278.032	691.4
278.419	678
278.807	699.2
279.194	683.2
279.581	684.4
279.969	695.6
280.356	695
280.744	693.8
281.131	719.6
281.519	707.8
281.907	692.6
282.295	680.2
282.682	695.8
283.07	690.4
283.458	702.6
283.846	704.2
284.235	701.8
284.623	713
285.011	676.6
285.399	690.6
285.788	701.2
286.176	677
286.565	710.4
286.953	686
287.342	682
287.731	689
288.119	689.2
288.508	686.2
288.897	688.4
289.286	675.4
289.675	705.8
290.064	699
290.453	680.6
290.821	689.8
291.21	705.4
291.599	687.8
291.989	685.8
292.378	701.4
292.768	709.4
293.157	708
293.547	704.4
293.936	689.2
294.326	685.8
294.716	694.2
295.106	692.6
295.496	702.6
295.886	701.2
296.276	690.2
296.666	678.2
297.056	687.2
297.446	682.2
297.836	714
298.227	686.2
298.617	699.6
299.008	710.6
299.398	684.2
299.789	687.8
300.179	698
300.57	709.8
300.961	691.8
301.352	680.6
301.742	703.6
302.133	692
302.524	685
302.915	687.8
303.307	679.4
303.698	695.6
304.089	689
304.48	682.6
304.872	697.8
305.263	688.4
305.655	686.8
306.046	699.8
306.438	695.4
306.829	681.2
307.221	701.8
307.613	697.6
308.005	702.8
308.397	705.6
308.789	716.2
309.181	723
309.573	712.6
309.965	699.2
310.357	691.4
310.749	703.6
311.142	685.4
311.534	687.8
311.926	702.6
312.319	688.8
312.711	687.6
313.104	711.6
313.497	682.8
313.889	737.4
314.282	715.2
314.675	713
315.068	689.2
315.461	694
315.854	716.6
316.247	700.8
316.64	691.6
317.033	696
317.405	699.6
317.798	690.4
318.192	702.2
318.585	685
318.979	689
319.372	688.2
319.766	695.2
320.16	704.4
320.553	715.2
320.947	718.4
321.341	688.4
321.735	690
322.129	679
322.523	720
322.917	690.2
323.311	707.4
323.705	700.4
324.099	697.2
324.494	712.2
324.888	698.2
325.282	689.4
325.677	712.8
326.071	705.8
326.466	709
326.861	693
327.255	709.4
327.65	703.8
328.045	710.6
328.44	706.8
328.835	694.2
329.23	688.8
329.625	717
330.02	692.6
330.415	717.4
330.81	691.6
331.206	697.2
331.601	682.4
331.996	696.2
332.37	715.2
332.766	686
333.161	712.4
333.557	695
333.953	687.8
334.348	1090.4
334.744	697
335.14	690.2
335.536	694.8
335.932	703
336.328	698
336.724	705
337.12	688.4
337.516	695.2
337.913	694.2
338.309	705.4
338.705	695.6
339.102	704.2
339.498	679.2
339.895	710.8
340.291	687.6
340.688	702.8
341.085	685.2
341.481	690.2
341.878	692.4
342.275	714.2
342.672	687
343.069	681
343.466	667.8
343.842	699.4
344.239	679.4
344.636	687.4
345.033	668.6
345.431	687.4
345.828	685.6
346.225	681.4
346.623	730.4
347.02	691.8
347.418	696.8
347.816	706.2
348.213	678.6
348.611	690.2
349.009	687.6
349.407	700
349.805	691.2
350.203	676
350.601	701.8
350.999	682
351.397	740.2
351.795	690.4
352.193	696.4
352.57	696.8
352.969	702.8
353.367	683.6
353.766	677.8
354.164	682.6
354.563	714.2
354.961	687.8
355.36	686.2
355.759	692.4
356.158	680.8
356.557	684.2
356.956	679.8
357.355	679.6
357.754	700.8
358.153	691.8
358.552	713.8
358.951	688.2
359.35	697.8
359.75	695.8
360.149	685.4
360.527	665.6
360.926	677.6
361.326	692.8
361.726	689.6
362.125	688.2
362.525	694.8
362.925	688
363.325	689
363.724	691
364.124	674.4
364.524	677
364.924	683.2
365.324	700
365.725	662.4
366.125	693.6
366.525	690.2
366.904	675.4
367.304	666.8
367.705	699.4
368.105	696.8
368.506	678.8
368.906	684.8
369.307	682.8
369.708	695.2
370.108	666
370.509	699.2
370.91	688.8
371.311	681.8
371.712	692.4
372.113	692.8
372.514	668.6
372.894	681
373.295	676.2
373.696	707
374.097	689
374.499	729.4
374.9	683
375.301	672.8
375.703	685.2
376.105	672.4
376.506	674.4
376.908	687.6
377.309	682.4
377.711	690.4
378.113	676.6
378.493	683.6
378.895	673.4
379.297	686.4
379.699	674
380.102	689.4
380.504	689.4
380.906	677
381.308	712.4
381.71	674
382.113	692.2
382.515	687.4
382.918	690.8
383.299	691.4
383.701	697.8
384.104	682.4
384.507	661
384.909	683.6
385.312	674.8
385.715	675.2
386.118	683.4
386.521	672.2
386.924	699.4
387.327	679.2
387.709	666.8
388.112	665.4
388.515	676.6
388.918	678.6
389.322	694.6
389.725	685.8
390.129	700.6
390.532	688.4
390.936	673.2
391.339	668.8
391.743	690.4
392.125	670
392.529	691.4
392.933	691
393.337	682.4
393.74	684
394.144	682.6
394.548	677.8
394.953	691
395.357	691.6
395.761	668.8
396.144	681.6
396.548	679.6
396.952	683
397.357	694.6
397.761	673.8
398.166	685
398.57	681
398.975	676
399.379	685.6
399.763	739
400.168	683.2
400.572	679.6
400.977	683
401.382	704.4
401.787	685.8
402.192	700.6
402.597	709.8
403.002	670.4
403.386	705.4
403.791	704.8
404.197	679.2
404.602	683.8
405.007	689
405.413	667.6
405.818	696.4
406.224	683.4
406.608	674.8
407.014	673.4
407.42	696
407.825	678.8
408.231	694.8
408.637	682.8
409.043	699.8
409.449	683.2
409.834	675.2
410.24	685.8
410.646	689.4
411.052	697.6
411.458	679.2
411.865	700.4
412.271	698
412.677	689.4
413.062	687
413.469	673.4
413.875	721.4
414.282	697.4
414.689	681.2
415.095	693.8
415.502	680.8
415.888	681
416.294	658.6
416.701	733.8
417.108	675.4
417.515	693.6
417.923	676.6
418.33	701.8
418.715	694
419.123	684.6
419.53	683.4
419.937	690
420.345	703
420.752	682.8
421.16	698.4
421.546	676.8
421.953	688.8
422.361	669.2
422.769	676
423.177	675.2
423.585	715.4
423.992	710
424.379	708.2
424.787	696.2
425.195	707.8
425.603	694.4
426.011	699.2
426.419	696.8
426.806	690.4
427.214	687.8
427.623	712.4
428.031	707
428.44	693.8
428.848	697.8
429.235	710.2
429.644	688.4
430.053	695
430.461	704.8
430.87	718.4
431.279	695.8
431.666	681.4
432.075	681
432.484	693.6
432.893	678.2
433.302	708.6
433.711	745.2
434.099	687.6
434.508	689.2
434.918	669.6
435.327	690.2
435.737	691.2
436.125	691
436.534	685.8
436.944	683.8
437.353	689.8
437.763	707.4
438.173	680.6
438.561	706.4
438.971	669.4
439.381	683.8
439.791	687.8
440.201	661.6
440.589	680.6
440.999	688.8
441.409	678.4
441.819	674
442.23	683.8
442.619	683.8
443.029	681.4
443.439	687.6
443.85	690.8
444.26	705.4
444.649	679.8
445.06	687.6
445.471	669
445.881	684.4
446.292	697.6
446.682	702
447.092	661.2
447.503	742.2
447.914	677.6
448.325	681
448.715	685.8
449.126	661.6
449.537	680.6
449.948	689.4
450.338	673
450.75	687
451.161	679.4
451.572	676.4
451.984	676.2
452.374	657.4
452.786	675.2
453.197	688.8
453.609	682
453.999	671.8
454.411	671.4
454.823	696
455.235	685.8
455.647	680.6
456.037	690.8
456.449	660.4
456.862	680.6
457.274	685.4
457.665	675.2
458.077	686.6
458.489	712.4
458.902	678.2
459.293	682.2
459.705	682.8
460.118	680.2
460.53	677
460.921	686.4
461.334	680
461.747	685.6
462.16	691
462.551	700.6
462.964	697
463.377	664.6
463.79	680.2
464.182	696
464.595	674.6
465.008	688.6
465.421	691.6
465.813	674
466.226	683
466.64	683
467.053	722.6
467.445	691
467.859	707.2
468.272	684
468.686	682.4
469.078	680
469.492	662
469.906	682.2
470.298	686.8
470.712	666.2
471.126	737.6
471.54	662.8
471.933	670
472.347	672.2
472.761	675.8
473.175	668.6
473.568	676.8
473.982	667.2
474.397	677.6
474.79	673.8
475.204	684
475.619	678.8
476.033	690.2
476.426	681.2
476.841	677.6
477.256	703.4
477.649	666.6
478.064	673.2
478.479	660.8
478.872	672.4
479.287	662
479.702	675.8
480.118	669
480.511	676.4
480.927	679.6
481.342	674.8
481.736	684.8
482.151	665.4
482.566	687.8
482.96	686.4
483.376	681.6
483.792	671.2
484.186	679.6
484.602	668.2
485.017	678.8
485.412	684.4
485.827	674
486.243	677.4
486.638	700.2
487.054	675.2
487.47	695.8
487.865	673
488.281	677
488.697	669.6
489.092	680.6
489.508	665.4
489.925	689.6
490.32	662.4
490.736	689.6
491.153	682.4
491.548	679.4
491.964	694.6
492.381	664.2
492.776	681
493.193	668.4
493.61	680.6
494.006	679.8
494.422	684.8
494.84	674
495.235	686.4
495.652	673.4
496.069	666.8
496.465	669.6
496.883	674.8
497.3	700
497.696	664.2
498.113	680.6
498.509	661.8
498.927	663.2
499.344	671
499.741	671.6
500.158	684.8
500.576	700.8
500.973	673.6
501.39	668.2
501.787	674.8
502.205	678.6
502.623	665.6
503.02	666.8
503.438	671.4
503.856	678.4
504.253	680.4
504.671	669.8
505.068	672
505.486	674.8
505.905	695.8
506.302	683.2
506.72	693.6
507.118	659.4
507.536	673.4
507.955	664.6
508.352	675.2
508.771	679
509.169	676.6
509.587	664.2
510.006	678.8
510.404	663.4
510.823	661.6
511.221	671
511.64	663.2
512.038	682.2
512.457	669
512.877	674.8
513.275	662.6
513.694	666.4
514.092	675.6
514.512	668.6
514.91	665.4
515.33	674.2
515.749	662.4
516.148	673.6
516.568	678
516.966	671.8
517.386	660.2
517.785	674.8
518.205	658
518.603	668.4
519.024	665.4
519.444	665.4
519.843	681.4
520.263	678.8
520.662	679.6
521.082	671.8
521.481	675.2
521.902	669.6
522.301	669.4
522.722	667.4
523.121	669
523.542	663.4
523.963	667
524.362	674.8
524.783	686.4
525.183	677.4
525.604	671
526.003	656.2
526.425	665.6
526.824	676
527.246	678.6
527.646	682.4
528.067	672.6
528.467	679.2
528.888	671.8
529.289	667.2
529.71	669.4
530.11	663.4
530.532	673.4
530.932	665.2
531.354	656.8
531.755	711
532.176	687.8
532.577	673
532.999	675.2
533.4	666.4
533.822	686.8
534.223	681.4
534.645	670.8
535.046	673.2
535.468	666.8
535.869	693.2
536.292	672
536.693	706.4
537.115	665.8
537.516	668.2
537.939	663.8
538.34	685.4
538.742	682.2
539.165	673.4
539.566	677
539.989	668
540.391	663.4
540.814	676.4
541.216	679.8
541.639	665
542.041	683.4
542.464	661.8
542.866	665
543.268	658.2
543.691	678.8
544.093	679.2
544.517	686.2
544.919	662
545.343	695.2
545.745	663.6
546.147	675.6
546.571	662.6
546.974	664.8
547.398	677
547.8	684.2
548.224	669.8
548.627	663
549.03	679.8
549.454	659.8
549.857	656.2
550.281	668.8
550.684	659.4
551.087	675.2
551.512	665.2
551.915	677.6
552.34	666.6
552.743	661.6
553.146	664
553.571	670
553.975	688
554.399	658.6
554.803	724.2
555.207	665.6
555.632	661.6
556.036	667.4
556.461	662.8
556.865	677
557.268	663.6
557.694	669.2
558.098	671
558.502	682.2
558.927	666.4
559.332	664.6
559.736	670.2
560.162	672.8
560.566	666
560.992	671.2
561.396	671.8
561.801	667.4
562.227	675.4
562.631	667
563.036	671.2
563.462	678.8
563.867	672
564.272	650.8
564.698	684.6
565.103	659.8
565.508	694
565.935	665.8
566.34	676
566.745	671.6
567.172	663
567.577	689.6
567.982	687.2
568.409	676.2
568.815	659.6
569.22	674.2
569.626	677.2
570.053	661.8
570.459	666.6
570.865	678.4
571.292	668.6
571.698	679.6
572.104	654.8
572.531	668.2
572.937	684
573.343	668
573.75	659.4
574.177	661.6
574.583	668.6
574.99	675.6
575.396	675
575.824	673.6
576.231	667.8
576.637	661.6
577.065	690
577.472	667.8
577.879	665.8
578.286	693.2
578.714	672.4
579.121	660.6
579.528	674
579.935	678.6
580.364	665.6
580.771	649.2
581.178	658.8
581.585	677.6
582.014	668.8
582.421	670
582.829	655.2
583.236	678.8
583.644	670.4
584.073	658.8
584.481	670.8
584.889	654.8
585.296	681.8
585.726	671.6
586.134	654
586.542	665.6
586.95	698
587.358	661.2
587.787	671.8
588.196	657.6
588.604	666.6
589.012	665.2
589.421	656.8
589.851	660.8
590.259	667
590.668	662
591.076	699.4
591.485	655.6
591.894	669.6
592.324	680.8
592.733	686.2
593.142	660.2
593.551	660.2
593.96	704.2
594.369	660
594.8	649.8
595.209	664.8
595.618	654
596.028	661.6
596.437	653.8
596.847	667.6
597.256	669.2
597.687	668.4
598.097	665
598.507	659
598.917	668
599.327	671
599.736	672
600.146	680.6
600.556	665.6
600.988	683.8
601.398	661
601.808	674.8
602.219	658
602.629	666.8
603.039	668
603.45	702.4
603.86	669.2
604.271	681.8
604.703	669.6
605.114	665.6
605.525	670
605.935	672
606.346	701.4
606.757	674.4
607.168	673
607.579	655.4
607.99	679.6
608.402	669
608.813	671.8
609.224	660.6
609.636	656
610.047	658.8
610.48	667
610.892	683
611.303	680.2
611.715	668
612.127	653.4
612.539	663.2
612.95	663.6
613.362	650.8
613.774	654.6
614.186	654
614.599	658.6
615.011	673.8
615.423	661.8
615.835	648.8
616.248	658.4
616.66	668.4
617.073	655.8
617.485	660
617.898	672
618.311	675.8
618.723	664
619.136	689
619.549	675
619.962	694.4
620.375	665.4
620.788	670.2
621.201	664.6
621.614	678.8
622.028	666.4
622.441	663.2
622.854	679.2
623.268	656.6
623.681	671
624.095	677.8
624.509	672.6
624.922	664.8
625.336	649.6
625.728	664.4
626.142	665.6
626.556	678.2
626.97	673.8
627.384	661
627.799	665.6
628.213	688
628.627	659.8
629.041	664.8
629.456	656
629.87	664
630.285	679.8
630.699	665.8
631.093	661.2
631.507	676.2
631.922	665.4
632.337	669.6
632.752	658.8
633.167	672.6
633.582	660.4
633.997	664.6
634.412	658.2
634.806	667
635.221	651.2
635.637	678.8
636.052	658.6
636.468	666.2
636.883	690
637.299	661.8
637.715	655
638.109	659
638.525	654.4
638.941	685.6
639.357	659.4
639.773	678.8
640.189	656
640.584	662.2
641	662.2
641.416	655
641.832	663
642.249	663.4
642.665	666.8
643.06	663.4
643.477	667
643.894	645.6
644.31	668.4
644.727	667
645.123	660.4
645.54	654
645.957	673.4
646.374	681.4
646.77	659.2
647.187	701.2
647.604	662.8
648.021	650.2
648.439	652
648.835	662.6
649.252	664.6
649.67	664.8
650.088	658.2
650.484	669.4
650.902	669.8
651.32	671.6
651.738	655.2
652.134	666
652.552	683.8
652.971	668.8
653.389	660
653.786	673.8
654.204	685.2
654.622	649.4
655.019	660.4
655.438	668.4
655.857	657.8
656.275	662.6
656.673	655.6
657.091	747.2
657.51	651.8
657.908	675
658.327	676.2
658.746	647.8
659.144	665.8
659.563	686
659.982	665.4
660.38	648
660.8	664
661.219	673.2
661.617	672.4
662.037	663
662.457	675.4
662.855	649.6
663.275	697
663.695	666.4
664.094	653.4
664.514	663.6
664.934	658.6
665.333	676.6
665.753	650.2
666.152	651.8
666.572	655.4
666.993	675
667.392	664
667.812	660
668.212	655.8
668.632	679.4
669.053	661
669.453	663.8
669.874	668.8
670.273	672.6
670.694	658.2
671.116	676.6
671.515	683.2
671.937	670.8
672.337	659.6
672.758	666.8
673.158	674.8
673.58	654.6
673.98	661.4
674.402	680.2
674.824	663.2
675.224	652.4
675.646	655.6
676.047	659.4
676.469	668.2
676.869	675.2
677.292	670.6
677.693	660
678.115	656
678.516	664.8
678.939	671
679.34	654.8
679.762	682.6
680.164	667.2
680.586	658.2
680.988	668.4
681.411	692
681.812	660
682.236	658.8
682.637	658.6
683.061	651.8
683.462	665.6
683.864	658.6
684.288	670.2
684.69	657.6
685.114	657.4
685.516	671
685.94	653.2
686.342	678.4
686.766	657.8
687.168	654.8
687.571	688
687.995	664.8
688.398	651
688.822	658.6
689.225	685.6
689.628	690.2
690.052	667.2
690.456	679.8
690.88	657
691.284	653.6
691.687	673.4
692.112	659
692.515	650.2
692.919	666.8
693.344	673.8
693.747	654.4
694.173	648
694.577	682.2
694.98	667.4
695.406	656.4
695.81	669
696.214	661.4
696.64	669.6
697.044	667.6
697.448	675.6
697.874	667.6
698.279	663
698.684	649.8
699.11	642.2
699.514	661.2
699.919	656.4
700.324	653.2
700.75	663.6
701.156	659.4
701.561	677.8
701.987	664
702.393	675.4
702.798	668.6
703.203	664
703.63	659.4
704.036	662.2
704.442	667.2
704.847	657
705.274	661.4
705.68	671.2
706.086	669
706.492	654.8
706.92	657.2
707.326	668
707.732	665.4
708.139	647.4
708.545	656.6
708.973	655.4
709.38	658.2
709.786	649.4
710.193	676.6
710.6	659.2
711.028	653.4
711.435	654.6
711.842	656
712.249	652.6
712.656	661
713.064	668.2
713.492	654.2
713.9	657.8
714.307	661.4
714.715	662.4
715.123	665.8
715.53	671
715.938	655.6
716.367	666.2
716.775	659.4
717.184	647.4
717.592	659.6
718	675.4
718.408	704.2
718.816	702.2
719.225	666.8
719.633	658
720.042	650.2
720.472	659
720.881	688.4
721.29	668.6
721.699	645.2
722.108	663
722.517	660.2
722.926	647.4
723.335	664.4
723.744	660.6
724.154	657.4
724.563	654.4
724.973	660.2
725.382	661.8
725.792	657.6
726.202	645.8
726.612	684
727.022	662.6
727.432	657.6
779.813	658.8
780.223	719.4
780.634	658.6
781.044	646
781.454	664.4
781.865	674.4
782.276	648.8
782.686	669.4
783.097	652.6
783.508	654.6
783.919	671.4
784.33	672
784.741	680.6
785.152	652.4
785.563	647.8
785.974	652.2
786.386	663.6
786.776	651.2
787.188	659
787.599	648.8
788.011	668.2
788.423	658.8
788.835	649.2
789.247	650.2
789.659	660.2
790.071	661.4
790.483	712.6
790.874	653.6
791.286	676.4
791.699	659.2
792.111	658
792.524	662.2
792.937	663.2
793.349	662.4
793.741	650.8
794.154	652
794.567	674.8
794.98	652.6
795.393	648
795.785	680
796.198	654.2
796.612	660.6
797.026	658.6
797.439	630.6
797.831	659.4
798.245	644.8
798.659	654.4
799.073	645.8
799.487	643.6
799.88	653.6
800.294	663
800.708	666.8
801.123	655
801.516	691.2
801.93	642.8
802.345	645.4
802.76	659
803.153	673.4
803.568	672.8
803.983	663.8
804.377	665.4
804.792	639.2
805.207	639.6
805.601	650.4
806.016	693.6
806.432	646
806.826	700.4
807.242	676.2
807.658	663.8
808.052	645.8
808.468	648.4
808.884	645
809.279	653
809.695	669
810.111	675.2
810.506	662.8
810.922	677.2
811.339	656.8
811.734	665.4
812.151	652
812.546	652
812.963	650.6
813.38	657
813.776	655
814.193	678.6
814.589	654
815.006	654.4
815.402	640.4
815.82	650
816.237	650.6
816.633	664.6
817.051	654.2
817.448	658.6
817.866	641.6
818.262	678.2
818.68	650.4
819.077	647.2
819.495	661.6
819.892	701
820.311	650
820.708	644.4
821.127	658.4
821.524	672.8
821.943	661.8
822.34	681.4
822.759	664.4
823.157	662.2
823.576	682.8
823.974	668.2
824.393	782.2
824.791	652.8
825.189	653.6
825.609	650
826.007	656.6
826.427	648.8
826.826	647
827.246	668.4
827.644	640.6
828.043	667.8
828.463	665.2
828.862	665.8
829.261	669.8
829.682	651
830.081	668.2
830.502	645.2
830.901	659
831.301	649.8
831.722	643.8
832.121	647
832.521	654.4
832.943	657.4
833.342	658.8
833.742	645
834.164	655.8
834.564	645.2
834.965	657
835.386	650.4
835.787	661.4
836.188	657.2
836.588	659.4
837.01	658.2
837.411	643.2
837.812	665.6
838.213	665.4
838.636	659.4
839.037	728.8
839.438	662.2
839.84	647.6
840.263	665.6
840.664	671
841.066	655
841.468	667
841.891	654
842.293	665.8
842.695	671.6
843.098	670.6
843.5	653.6
843.902	662.6
844.326	661.6
844.729	653.6
845.131	673.8
845.534	664
845.937	675.2
846.34	669
846.764	646.8
847.167	660
847.571	643.2
847.974	657.6
848.377	655
848.781	712
849.184	670.4
849.588	653.6
849.992	649
850.396	667.6
850.821	676.4
851.225	661
851.63	656.8
852.034	672.8
852.438	659.2
852.843	794.2
853.247	655.8
853.652	655.2
854.057	681.6
854.462	656.4
854.867	668.4
855.272	697.4
855.677	651.4
856.082	652.4
856.487	656
856.893	666.6
