#lambda/nm	C1
208.295	539.6
208.67	489.6
209.045	453.2
209.419	456.4
209.794	688
210.169	665.8
210.544	801.8
210.919	687.8
211.295	673
211.67	683.8
212.045	689.8
212.421	685.4
212.796	735.4
213.172	686.2
213.547	682.2
213.923	686
214.299	682.2
214.675	683.4
215.051	683.8
215.427	692.2
215.803	707.4
216.179	682.8
216.555	671
216.932	692.6
217.308	680.6
217.684	678.6
218.061	683.2
218.438	694.2
218.814	681.6
219.191	700
219.568	680
219.945	685
220.322	685.8
220.699	691.2
221.076	691
221.453	695.8
221.83	685.2
222.208	675.6
222.585	679.6
222.962	697.2
223.34	695.6
223.717	690.4
224.095	690.4
224.473	683.6
224.851	679
225.229	677.4
225.607	707.4
225.985	680.6
226.363	686.8
226.741	690.2
227.119	685
227.497	703.2
227.876	677.4
228.254	697
228.633	695.6
229.011	690.8
229.39	688
229.769	688.6
230.148	691
230.527	720.8
230.905	687
231.284	697
231.664	681.8
232.043	704.8
232.422	700.4
232.801	681
233.181	701
233.56	686.8
233.94	692
234.319	681
234.699	689.2
235.079	738
235.458	722.2
235.838	708.4
236.218	683.8
236.598	679.4
236.978	679.8
237.358	682.2
237.738	686.8
238.119	695
238.499	668.4
238.88	685
239.26	706.2
239.641	663.6
240.021	687.6
240.402	683
240.783	672.8
241.163	680.6
241.544	689.2
241.925	682.2
242.306	699
242.687	675
243.069	689
243.45	691.4
243.831	683.4
244.212	689.8
244.594	722.8
244.975	700.2
245.357	694.4
245.739	680.2
246.12	686
246.502	702.6
246.884	685.8
247.266	679.4
247.648	705.4
248.03	714.4
248.412	693.6
248.794	696.4
249.176	694
249.559	701.6
249.941	684.6
250.323	678.6
250.706	683.2
251.089	695.8
251.471	700.4
251.854	685.8
252.237	694.4
252.62	691.4
253.002	699.8
253.385	695
253.769	712.8
254.152	688.6
254.535	689.6
254.918	680.4
255.301	677.2
255.685	684.8
256.068	673.4
256.452	712.2
256.835	696.4
257.219	692.2
257.603	694.8
257.986	680.4
258.37	688.4
258.754	672.6
259.138	691.2
259.522	691.2
259.906	686.8
260.29	689.6
260.675	681
261.059	683.4
261.443	676
261.828	689.8
262.212	700.2
262.597	670.6
262.981	682.2
263.366	696.4
263.751	695.8
264.136	684.4
264.521	682
264.906	681.2
265.291	703.2
265.676	681.2
266.061	695
266.446	703
266.831	694.8
267.217	704.6
267.602	694.8
267.987	690
268.373	683
268.759	697.8
269.144	694.2
269.53	686.8
269.916	690.6
270.302	682.6
270.688	695.2
271.074	693
271.46	701.6
271.846	738.2
272.232	690
272.618	686.2
273.004	687.6
273.391	700.4
273.777	713.4
274.164	689
274.55	708
274.937	689.8
275.324	680.6
275.71	685.6
276.097	693.8
276.484	689.8
276.871	696.6
277.258	685.8
277.645	675
278.032	691.2
278.419	680
278.807	683.6
279.194	687.4
279.581	676.4
279.969	698.6
280.356	689.8
280.744	693.4
281.131	722
281.519	699.2
281.907	681.8
282.295	678.4
282.682	694.4
283.07	691.4
283.458	705.8
283.846	696
284.235	704.8
284.623	697.4
285.011	676.8
285.399	682.8
285.788	684.6
286.176	683.4
286.565	702.8
286.953	689.4
287.342	686.4
287.731	676.8
288.119	679.8
288.508	687.6
288.897	695.4
289.286	671.2
289.675	688.4
290.064	701.6
290.453	676
290.821	690
291.21	706.8
291.599	685.2
291.989	692.2
292.378	698
292.768	708.4
293.157	698.8
293.547	702.4
293.936	691.6
294.326	688
294.716	698.2
295.106	688.2
295.496	700.6
295.886	704.6
296.276	692.4
296.666	683.6
297.056	682
297.446	682.4
297.836	703
298.227	686
298.617	689.4
299.008	711.4
299.398	684
299.789	679.8
300.179	690.8
300.57	704.8
300.961	687.6
301.352	685.8
301.742	704.4
302.133	691.8
302.524	687.6
302.915	687.4
303.307	682.2
303.698	698.6
304.089	692.6
304.48	691.2
304.872	695.2
305.263	694.8
305.655	691.2
306.046	706.4
306.438	696.8
306.829	688.4
307.221	708.2
307.613	702.2
308.005	698.6
308.397	707.2
308.789	722.4
309.181	715.8
309.573	707.2
309.965	711
310.357	692.4
310.749	709.2
311.142	685.6
311.534	688.8
311.926	709.2
312.319	699.2
312.711	676.4
313.104	707
313.497	692.4
313.889	733.4
314.282	711.4
314.675	721.4
315.068	690.4
315.461	708.8
315.854	727
316.247	699.6
316.64	691.4
317.033	689.4
317.405	696.8
317.798	687.8
318.192	698.8
318.585	685
318.979	685.6
319.372	677.8
319.766	688.6
320.16	702.2
320.553	711.2
320.947	708
321.341	691.6
321.735	687.6
322.129	672.8
322.523	714.8
322.917	679.2
323.311	701.4
323.705	694
324.099	696.2
324.494	717.8
324.888	700.8
325.282	690
325.677	710
326.071	694
326.466	704
326.861	697.2
327.255	704.4
327.65	707.8
328.045	706.2
328.44	698.2
328.835	697.8
329.23	683
329.625	719
330.02	688.4
330.415	708.6
330.81	698.4
331.206	696
331.601	689.2
331.996	697.4
332.37	715.8
332.766	676.4
333.161	717
333.557	690.2
333.953	688.2
334.348	1127.8
334.744	688
335.14	690.6
335.536	692.4
335.932	706.4
336.328	685.6
336.724	712.4
337.12	695.8
337.516	706.4
337.913	698.8
338.309	714
338.705	700
339.102	705.6
339.498	700.4
339.895	703.4
340.291	693.6
340.688	697.8
341.085	676
341.481	695
341.878	686.8
342.275	721.6
342.672	690.8
343.069	683.4
343.466	676.4
343.842	703.8
344.239	686
344.636	697
345.033	684.2
345.431	688
345.828	689
346.225	681.2
346.623	721.2
347.02	686.2
347.418	693.2
347.816	706.2
348.213	681.8
348.611	712.2
349.009	685
349.407	704
349.805	673.2
350.203	677.4
350.601	703.2
350.999	679
351.397	756.6
351.795	696.6
352.193	700.8
352.57	701.4
352.969	708.2
353.367	678.4
353.766	675.6
354.164	681.4
354.563	713.4
354.961	687.2
355.36	679.8
355.759	689.8
356.158	679.2
356.557	680.8
356.956	680.6
357.355	679.4
357.754	697
358.153	686.2
358.552	713.8
358.951	686.6
359.35	692.6
359.75	680.4
360.149	684.2
360.527	668.2
360.926	667.2
361.326	687.4
361.726	681.4
362.125	673
362.525	689.4
362.925	688.2
363.325	682.4
363.724	682.6
364.124	679
364.524	672
364.924	679.4
365.324	693.2
365.725	653.4
366.125	692
366.525	691.4
366.904	675.2
367.304	671.2
367.705	703.8
368.105	699
368.506	686.2
368.906	687.2
369.307	685.2
369.708	686.6
370.108	669.4
370.509	696.6
370.91	677.6
371.311	686.2
371.712	693.8
372.113	685.8
372.514	674
372.894	682.8
373.295	679.6
373.696	703.6
374.097	693.2
374.499	718.4
374.9	688.6
375.301	680
375.703	692
376.105	668
376.506	687.2
376.908	686.6
377.309	686.6
377.711	686
378.113	680.8
378.493	682.8
378.895	682.4
379.297	696.2
379.699	674.6
380.102	681.8
380.504	684.6
380.906	674
381.308	711.4
381.71	686.4
382.113	686.8
382.515	680.4
382.918	689.4
383.299	685
383.701	696.4
384.104	685.6
384.507	657.2
384.909	685
385.312	661.8
385.715	678
386.118	671
386.521	666.6
386.924	692.8
387.327	674.6
387.709	661.4
388.112	659.2
388.515	677
388.918	671.2
389.322	685.2
389.725	667.6
390.129	705.6
390.532	683.8
390.936	672.4
391.339	678.8
391.743	692.6
392.125	668
392.529	693.4
392.933	687.4
393.337	679
393.74	684.4
394.144	685.4
394.548	677.2
394.953	681.2
395.357	693
395.761	681
396.144	685.4
396.548	686.2
396.952	688
397.357	683
397.761	670.4
398.166	681.2
398.57	681.6
398.975	663
399.379	698
399.763	739.4
400.168	678.2
400.572	681.8
400.977	683
401.382	702.4
401.787	702.4
402.192	697.2
402.597	699.6
403.002	667.8
403.386	698
403.791	710
404.197	679.2
404.602	681.6
405.007	681.2
405.413	676.8
405.818	695.6
406.224	672.6
406.608	681.2
407.014	674.8
407.42	706.4
407.825	682.6
408.231	693.4
408.637	690.2
409.043	704.4
409.449	675.4
409.834	671
410.24	681.6
410.646	693.8
411.052	698.4
411.458	684.8
411.865	689.2
412.271	699.8
412.677	681.4
413.062	693.6
413.469	677.2
413.875	710.6
414.282	701.6
414.689	681.2
415.095	692.6
415.502	673.6
415.888	693
416.294	676
416.701	738.6
417.108	681.8
417.515	692
417.923	687
418.33	708.8
418.715	694.4
419.123	685.2
419.53	672
419.937	689.2
420.345	693.6
420.752	677
421.16	693
421.546	676.8
421.953	687.2
422.361	679.4
422.769	685.8
423.177	673
423.585	705.6
423.992	709.2
424.379	692.6
424.787	695.4
425.195	705.2
425.603	677
426.011	699.4
426.419	699.6
426.806	690.6
427.214	695.6
427.623	691.8
428.031	701.8
428.44	686.2
428.848	703.6
429.235	704.4
429.644	690.2
430.053	686.6
430.461	704.6
430.87	720.4
431.279	704.4
431.666	676.4
432.075	688.8
432.484	694.8
432.893	683.8
433.302	707.8
433.711	734.2
434.099	693.8
434.508	680.2
434.918	671.4
435.327	695.6
435.737	692.6
436.125	687
436.534	690.8
436.944	690
437.353	695
437.763	706.6
438.173	674.6
438.561	693.4
438.971	666
439.381	680.4
439.791	690
440.201	655.8
440.589	687.8
440.999	693.6
441.409	686.6
441.819	666.8
442.23	693.4
442.619	690.8
443.029	687.8
443.439	684.4
443.85	698
444.26	700.2
444.649	683.8
445.06	684
445.471	682.6
445.881	673.2
446.292	698
446.682	705.4
447.092	669
447.503	740.8
447.914	680.2
448.325	683.6
448.715	677.8
449.126	670.2
449.537	673.6
449.948	683
450.338	687.2
450.75	678
451.161	680.6
451.572	682.8
451.984	668.2
452.374	658
452.786	675.4
453.197	683.6
453.609	691
453.999	667.2
454.411	675
454.823	691.4
455.235	685
455.647	683
456.037	679.4
456.449	668
456.862	687
457.274	689.6
457.665	672.4
458.077	684.8
458.489	717.2
458.902	681.2
459.293	686
459.705	683.8
460.118	683
460.53	682
460.921	674.8
461.334	686
461.747	688
462.16	693.8
462.551	700.8
462.964	685.4
463.377	664.4
463.79	679.8
464.182	694
464.595	670.4
465.008	681.6
465.421	685.4
465.813	677.2
466.226	678.6
466.64	672.4
467.053	729
467.445	693.6
467.859	694
468.272	679
468.686	690.4
469.078	668.8
469.492	665.8
469.906	676.4
470.298	689
470.712	669.8
471.126	742.4
471.54	664.8
471.933	672
472.347	675.4
472.761	661.4
473.175	668.4
473.568	672.2
473.982	666
474.397	679.2
474.79	681
475.204	685.8
475.619	671.8
476.033	678.4
476.426	679.6
476.841	671.6
477.256	701.2
477.649	679
478.064	663.2
478.479	674.4
478.872	664.8
479.287	659.4
479.702	670.6
480.118	670.4
480.511	670.6
480.927	677.8
481.342	669.8
481.736	677.8
482.151	666.4
482.566	683.4
482.96	677.8
483.376	683.2
483.792	660.2
484.186	679.2
484.602	669.2
485.017	672
485.412	674.8
485.827	677.2
486.243	674.2
486.638	702.8
487.054	681.8
487.47	689.8
487.865	687.6
488.281	667.4
488.697	672
489.092	671.4
489.508	660.2
489.925	681.6
490.32	666.4
490.736	680
491.153	677
491.548	673.2
491.964	675.6
492.381	658.2
492.776	681.2
493.193	672.4
493.61	677.6
494.006	684.2
494.422	680.8
494.84	665.2
495.235	681.4
495.652	679.2
496.069	676.4
496.465	654.2
496.883	669.8
497.3	704
497.696	670.4
498.113	679.4
498.509	663.8
498.927	668.8
499.344	666.4
499.741	670.4
500.158	679.8
500.576	684.2
500.973	677.4
501.39	672.4
501.787	666.2
502.205	680.4
502.623	668
503.02	659.8
503.438	660.2
503.856	665.4
504.253	677
504.671	675
505.068	666.4
505.486	671.4
505.905	693.2
506.302	677.8
506.72	689.2
507.118	670.4
507.536	674.2
507.955	670.6
508.352	673.6
508.771	680
509.169	676.6
509.587	671.2
510.006	666.4
510.404	661
510.823	660.4
511.221	666.2
511.64	670.4
512.038	691.6
512.457	669
512.877	668.2
513.275	673.2
513.694	659.6
514.092	665.4
514.512	677.2
514.91	665.2
515.33	676.8
515.749	668.2
516.148	669.6
516.568	674.8
516.966	674
517.386	669
517.785	677.2
518.205	670.8
518.603	662.4
519.024	651.8
519.444	670.4
519.843	685
520.263	676.6
520.662	675.8
521.082	679
521.481	666.2
521.902	671
522.301	675.4
522.722	672.4
523.121	663.4
523.542	676.6
523.963	666
524.362	673.4
524.783	674.2
525.183	671.6
525.604	675
526.003	669
526.425	654.8
526.824	672.4
527.246	677.6
527.646	679.2
528.067	670
528.467	668.2
528.888	673.8
529.289	662.8
529.71	663.8
530.11	652.2
530.532	665
530.932	654.2
531.354	658.8
531.755	698.6
532.176	680.4
532.577	672
532.999	667.6
533.4	670.6
533.822	684.2
534.223	669.6
534.645	671
535.046	667.4
535.468	671.8
535.869	685
536.292	660.2
536.693	722.4
537.115	677
537.516	661.8
537.939	670.6
538.34	692.8
538.742	683.2
539.165	679.4
539.566	672.6
539.989	662.8
540.391	669.8
540.814	672.4
541.216	676.8
541.639	664.6
542.041	679.2
542.464	658.6
542.866	660.2
543.268	666.6
543.691	676
544.093	687
544.517	687.2
544.919	667.6
545.343	703.2
545.745	661.6
546.147	669.6
546.571	666.8
546.974	661.2
547.398	668.2
547.8	685.6
548.224	676.4
548.627	665.6
549.03	675.4
549.454	656.8
549.857	659
550.281	660
550.684	658.6
551.087	688.2
551.512	676.6
551.915	678.8
552.34	667.4
552.743	669.2
553.146	664.4
553.571	664.4
553.975	695.4
554.399	661.6
554.803	722.4
555.207	662.4
555.632	648.6
556.036	672
556.461	652.6
556.865	669
557.268	674.2
557.694	665.8
558.098	671.8
558.502	675.6
558.927	662.8
559.332	675.8
559.736	661.6
560.162	672.2
560.566	672.6
560.992	678.6
561.396	671.8
561.801	667.4
562.227	672.6
562.631	668.4
563.036	673
563.462	688.4
563.867	670.6
564.272	663.6
564.698	670.8
565.103	656
565.508	684.8
565.935	668.4
566.34	667
566.745	688.6
567.172	669.6
567.577	695.4
567.982	685.2
568.409	669
568.815	652
569.22	663.6
569.626	679.4
570.053	646
570.459	673.2
570.865	673
571.292	668.6
571.698	667.8
572.104	648.2
572.531	668.6
572.937	678.8
573.343	667
573.75	667
574.177	667.6
574.583	666.8
574.99	672
575.396	674
575.824	667.8
576.231	667.8
576.637	665
577.065	693.4
577.472	658.4
577.879	664.6
578.286	684
578.714	659.8
579.121	667.6
579.528	663.4
579.935	672.6
580.364	665
580.771	646
581.178	655.2
581.585	667
582.014	679.6
582.421	664.2
582.829	659.4
583.236	681.4
583.644	669.6
584.073	663.6
584.481	655.4
584.889	656.2
585.296	676.6
585.726	670
586.134	658.6
586.542	662.8
586.95	693.2
587.358	648.8
587.787	667.8
588.196	655.8
588.604	662
589.012	667.2
589.421	662
589.851	661.8
590.259	669
590.668	671.2
591.076	709.4
591.485	659
591.894	670.6
592.324	677.4
592.733	678.2
593.142	653.6
593.551	658.2
593.96	714.6
594.369	655.8
594.8	648
595.209	658.6
595.618	647.2
596.028	661
596.437	655.2
596.847	658.8
597.256	672
597.687	667.2
598.097	662
598.507	659.2
598.917	667.8
599.327	672.8
599.736	671
600.146	683.8
600.556	664.2
600.988	683
601.398	657.8
601.808	680.2
602.219	654.4
602.629	671.6
603.039	670.2
603.45	700.4
603.86	666.2
604.271	677.2
604.703	667.8
605.114	668.2
605.525	667
605.935	671
606.346	691.2
606.757	669.6
607.168	664
607.579	659.8
607.99	672.8
608.402	673.6
608.813	669
609.224	669.4
609.636	655.6
610.047	660.8
610.48	666.4
610.892	677.2
611.303	679
611.715	660.6
612.127	651.2
612.539	659.4
612.95	668.4
613.362	653.4
613.774	653.2
614.186	659.8
614.599	658
615.011	669.2
615.423	667.4
615.835	664.8
616.248	652.2
616.66	679.4
617.073	654.6
617.485	664.6
617.898	675.4
618.311	664.4
618.723	667
619.136	697.8
619.549	680
619.962	681.2
620.375	659.8
620.788	673.2
621.201	661.4
621.614	672
622.028	657.4
622.441	669.6
622.854	689.6
623.268	654
623.681	675
624.095	664.6
624.509	679.4
624.922	678.2
625.336	648.2
625.728	664
626.142	674.6
626.556	687.6
626.97	674.2
627.384	656.2
627.799	661.4
628.213	669
628.627	666.6
629.041	660
629.456	661.6
629.87	666.2
630.285	672.6
630.699	672.6
631.093	649
631.507	667
631.922	661.6
632.337	678.8
632.752	649
633.167	661.4
633.582	658.8
633.997	660
634.412	654
634.806	666.2
635.221	660.6
635.637	678.4
636.052	646.4
636.468	658.2
636.883	675.8
637.299	651.6
637.715	648
638.109	656
638.525	658.6
638.941	677.8
639.357	678.2
639.773	672.2
640.189	650.8
640.584	659.6
641	671.8
641.416	653.2
641.832	668.4
642.249	663.2
642.665	667.6
643.06	667.8
643.477	673.4
643.894	645
644.31	667.2
644.727	668.6
645.123	662.6
645.54	655.2
645.957	663.6
646.374	676.8
646.77	662.2
647.187	695.4
647.604	661.4
648.021	644.8
648.439	659.4
648.835	659.6
649.252	665.4
649.67	658.8
650.088	673.6
650.484	662.8
650.902	672
651.32	679.6
651.738	664.4
652.134	668.6
652.552	683.2
652.971	676.2
653.389	666
653.786	682.6
654.204	692
654.622	652.4
655.019	664.4
655.438	675.6
655.857	676.8
656.275	667.8
656.673	658
657.091	745
657.51	649.8
657.908	674.2
658.327	688
658.746	653.2
659.144	652.4
659.563	678
659.982	666.8
660.38	646
660.8	659.6
661.219	675.2
661.617	662.6
662.037	665.6
662.457	683.2
662.855	651.2
663.275	692.8
663.695	662.4
664.094	659.8
664.514	670.2
664.934	658
665.333	671.6
665.753	659.6
666.152	655
666.572	657.2
666.993	682
667.392	665.2
667.812	665.2
668.212	664.4
668.632	663
669.053	658.6
669.453	666
669.874	665.6
670.273	662.4
670.694	666
671.116	676.2
671.515	671
671.937	659.8
672.337	659.2
672.758	655.2
673.158	676.4
673.58	654
673.98	673
674.402	665.4
674.824	656.2
675.224	660.8
675.646	651.4
676.047	657
676.469	657.8
676.869	664.6
677.292	665.4
677.693	653.8
678.115	660.4
678.516	668.8
678.939	664
679.34	665.6
679.762	676.8
680.164	665.6
680.586	653.8
680.988	661
681.411	691.6
681.812	663.2
682.236	661.4
682.637	664.4
683.061	648.6
683.462	658
683.864	651.6
684.288	664
684.69	650.6
685.114	676.8
685.516	675.2
685.94	655.4
686.342	664.2
686.766	658.2
687.168	663.8
687.571	681.6
687.995	659.6
688.398	653.4
688.822	662.2
689.225	670.6
689.628	691.4
690.052	663.2
690.456	673.4
690.88	662.8
691.284	657.8
691.687	673.8
692.112	646.8
692.515	651.6
692.919	668
693.344	664.6
693.747	656
694.173	651.4
694.577	671.6
694.98	665.2
695.406	658
695.81	666
696.214	665.8
696.64	672
697.044	668.8
697.448	669.2
697.874	657.2
698.279	654.8
698.684	646.8
699.11	650.2
699.514	655.6
699.919	654.8
700.324	653.4
700.75	655.8
701.156	667
701.561	676.4
701.987	665
702.393	672.4
702.798	676.4
703.203	657.4
703.63	657.8
704.036	660.6
704.442	670
704.847	655.6
705.274	655
705.68	671.4
706.086	673.6
706.492	654.6
706.92	658.4
707.326	668.2
707.732	647
708.139	647.2
708.545	656.8
708.973	657.6
709.38	660
709.786	654.6
710.193	669.6
710.6	665.8
711.028	661.2
711.435	666.8
711.842	664.2
712.249	656.8
712.656	661.4
713.064	666.4
713.492	661.6
713.9	662.4
714.307	671
714.715	661.2
715.123	670
715.53	666
715.938	675.6
716.367	655.8
716.775	659.2
717.184	650.4
717.592	658.8
718	674.8
718.408	696.6
718.816	713.8
719.225	671
719.633	664.8
720.042	658
720.472	664.6
720.881	685
721.29	670.4
721.699	651.8
722.108	662
722.517	660.6
722.926	656.8
723.335	673.6
723.744	668.6
724.154	663.2
724.563	668.6
724.973	670
725.382	660.2
725.792	658.6
726.202	651.2
726.612	695.4
727.022	663.4
727.432	652.6
779.813	665
780.223	707
780.634	653.4
781.044	653.6
781.454	666.6
781.865	673.4
782.276	655.6
782.686	674
783.097	658
783.508	652.2
783.919	664.4
784.33	665.6
784.741	672
785.152	648
785.563	644.4
785.974	651
786.386	668.6
786.776	654.2
787.188	642.2
787.599	643.8
788.011	658.8
788.423	661.4
788.835	645.8
789.247	641
789.659	641
790.071	650
790.483	700.4
790.874	648.6
791.286	660.6
791.699	654
792.111	653.2
792.524	654
792.937	656.4
793.349	644
793.741	652.4
794.154	655
794.567	677.6
794.98	653
795.393	643.6
795.785	674.2
796.198	651.2
796.612	654
797.026	649
797.439	643.6
797.831	647.8
798.245	647.8
798.659	656.6
799.073	657.4
799.487	649.4
799.88	663
800.294	657.6
800.708	663.2
801.123	664.4
801.516	681.8
801.93	646.2
802.345	637.8
802.76	660.8
803.153	668.6
803.568	675.6
803.983	669.4
804.377	660.8
804.792	655.6
805.207	644.8
805.601	663.8
806.016	700
806.432	649.2
806.826	700.2
807.242	672
807.658	662.6
808.052	655.6
808.468	652
808.884	654.4
809.279	660.8
809.695	673.6
810.111	680.4
810.506	663.4
810.922	671.4
811.339	652.4
811.734	659.2
812.151	653.2
812.546	654.2
812.963	653
813.38	655.6
813.776	653.2
814.193	674.6
814.589	650.6
815.006	660
815.402	662.4
815.82	644.2
816.237	660.6
816.633	658.8
817.051	646.4
817.448	657.8
817.866	650.8
818.262	676.2
818.68	654.8
819.077	651.6
819.495	658.4
819.892	702.6
820.311	653.6
820.708	651.2
821.127	643
821.524	672.6
821.943	662.4
822.34	676.2
822.759	662.4
823.157	660.6
823.576	672.6
823.974	665.8
824.393	726.2
824.791	654.2
825.189	644.6
825.609	657.4
826.007	667
826.427	643.4
826.826	654.6
827.246	669
827.644	641.2
828.043	671.6
828.463	654.4
828.862	675.2
829.261	660.6
829.682	646.2
830.081	671
830.502	649.2
830.901	655
831.301	648.6
831.722	640
832.121	659.6
832.521	651
832.943	655.2
833.342	654.6
833.742	651.6
834.164	655.4
834.564	650.6
834.965	651.4
835.386	652
835.787	652
836.188	653.8
836.588	659.4
837.01	658.6
837.411	652.6
837.812	661
838.213	665.4
838.636	660.8
839.037	739.8
839.438	652.2
839.84	654.4
840.263	658
840.664	669
841.066	657.8
841.468	664.4
841.891	652.2
842.293	673
842.695	669
843.098	667
843.5	657.6
843.902	660.6
844.326	660
844.729	661.4
845.131	666.8
845.534	663.6
845.937	668.4
846.34	675.6
846.764	655
847.167	659.4
847.571	646.6
847.974	658.4
848.377	653.4
848.781	717.2
849.184	667.8
849.588	647.2
849.992	648.8
850.396	659
850.821	671
851.225	663
851.63	652.8
852.034	667
852.438	654.8
852.843	708.4
853.247	658.6
853.652	645.2
854.057	668
854.462	654.8
854.867	657.6
855.272	685
855.677	664.2
856.082	642.6
856.487	643.8
856.893	666.4
857.298	652.8
857.704	650
