#lambda/nm	C1
208.295	543.8
208.67	493.2
209.045	458.4
209.419	450
209.794	683.4
210.169	664.8
210.544	811
210.919	692.4
211.295	678.8
211.67	689.2
212.045	698.6
212.421	682
212.796	722.2
213.172	677.2
213.547	672.2
213.923	687.4
214.299	679
214.675	697.2
215.051	689.2
215.427	692.2
215.803	706.6
216.179	687.2
216.555	681
216.932	697.2
217.308	684
217.684	680.2
218.061	696.8
218.438	691
218.814	675.6
219.191	688.4
219.568	682.8
219.945	682.2
220.322	694
220.699	690.4
221.076	702.6
221.453	693.8
221.83	677.2
222.208	684.6
222.585	688.8
222.962	693.2
223.34	694.4
223.717	679.8
224.095	686.2
224.473	683.2
224.851	684.6
225.229	679
225.607	707.8
225.985	672.8
226.363	694.2
226.741	685.2
227.119	692.6
227.497	695.2
227.876	671.4
228.254	703.4
228.633	694.6
229.011	687
229.39	696
229.769	692.6
230.148	694.8
230.527	715.2
230.905	681.6
231.284	688.8
231.664	684.6
232.043	706.2
232.422	692.4
232.801	683.4
233.181	700.6
233.56	691.6
233.94	686
234.319	673.4
234.699	678.2
235.079	730.2
235.458	729.6
235.838	703.6
236.218	676.4
236.598	679
236.978	682
237.358	676
237.738	682.2
238.119	700.8
238.499	678.6
238.88	696.2
239.26	716.8
239.641	676.6
240.021	687.8
240.402	698.4
240.783	682.2
241.163	683.6
241.544	695.2
241.925	689.2
242.306	701.8
242.687	693.2
243.069	682.2
243.45	698.4
243.831	678.2
244.212	691.2
244.594	725.6
244.975	699.2
245.357	699
245.739	681.8
246.12	693
246.502	703.6
246.884	697
247.266	687.4
247.648	696.8
248.03	716.4
248.412	690.2
248.794	697
249.176	684.2
249.559	697.2
249.941	680.2
250.323	681.6
250.706	685.2
251.089	694.8
251.471	695.4
251.854	689.4
252.237	702.2
252.62	692.6
253.002	688.8
253.385	699.4
253.769	710.8
254.152	688.8
254.535	695.2
254.918	674.6
255.301	693.4
255.685	687.6
256.068	689
256.452	708.2
256.835	698.4
257.219	690.2
257.603	712
257.986	679
258.37	698.6
258.754	677.6
259.138	703
259.522	703.8
259.906	681.6
260.29	696.6
260.675	689
261.059	689.4
261.443	680.4
261.828	695.2
262.212	693
262.597	676.2
262.981	677.2
263.366	695.4
263.751	691
264.136	685.2
264.521	684.6
264.906	679.8
265.291	697.8
265.676	689
266.061	699.2
266.446	709.4
266.831	688.8
267.217	700
267.602	689.2
267.987	692
268.373	689
268.759	700.4
269.144	697.4
269.53	693.4
269.916	692.6
270.302	687.4
270.688	694
271.074	699.8
271.46	700
271.846	725
272.232	686.6
272.618	675.4
273.004	688.4
273.391	706
273.777	715.6
274.164	695.8
274.55	713.4
274.937	695.2
275.324	684.2
275.71	693.8
276.097	704
276.484	680.6
276.871	698.8
277.258	690.4
277.645	673.2
278.032	690.4
278.419	684
278.807	686.6
279.194	685.2
279.581	686.8
279.969	693.8
280.356	688.6
280.744	692
281.131	717.6
281.519	702
281.907	686.6
282.295	689
282.682	700.6
283.07	697.8
283.458	705.4
283.846	701
284.235	712.8
284.623	706.8
285.011	676.4
285.399	698.4
285.788	685.8
286.176	674.8
286.565	706.6
286.953	691
287.342	684
287.731	685.6
288.119	686.4
288.508	686.8
288.897	687.2
289.286	673
289.675	680.8
290.064	689.4
290.453	681
290.821	683.6
291.21	706.6
291.599	681
291.989	688.2
292.378	695
292.768	710.8
293.157	695.2
293.547	695.4
293.936	685.6
294.326	690
294.716	696.6
295.106	695.6
295.496	706.2
295.886	701.2
296.276	693.2
296.666	684.2
297.056	686
297.446	673.6
297.836	712.4
298.227	693.6
298.617	696
299.008	700.6
299.398	691.6
299.789	682
300.179	687.4
300.57	707
300.961	694.2
301.352	694.6
301.742	697.8
302.133	694.6
302.524	688.6
302.915	691.4
303.307	679.8
303.698	698.8
304.089	696.4
304.48	695.2
304.872	702.8
305.263	697.2
305.655	685.4
306.046	699.8
306.438	697.2
306.829	683.2
307.221	711.8
307.613	702
308.005	700.6
308.397	704.8
308.789	715
309.181	719.6
309.573	708.6
309.965	697.2
310.357	681.4
310.749	706.6
311.142	677.2
311.534	677.8
311.926	700.2
312.319	696
312.711	671
313.104	700.4
313.497	701.6
313.889	740.2
314.282	716
314.675	720.6
315.068	697.4
315.461	704
315.854	730.2
316.247	692.8
316.64	685.8
317.033	692.4
317.405	696.8
317.798	689.6
318.192	696.8
318.585	682
318.979	698
319.372	683.8
319.766	684
320.16	693.2
320.553	705.8
320.947	711.2
321.341	690.2
321.735	687
322.129	679.4
322.523	721.8
322.917	673.8
323.311	694.8
323.705	685.6
324.099	702.2
324.494	707
324.888	701.2
325.282	691.8
325.677	708.6
326.071	690.4
326.466	707.6
326.861	705.6
327.255	709.4
327.65	706.4
328.045	711.4
328.44	697.8
328.835	697
329.23	689.8
329.625	731.4
330.02	685
330.415	720.8
330.81	691.4
331.206	694.8
331.601	685.2
331.996	696.6
332.37	716
332.766	682.6
333.161	717.2
333.557	689.6
333.953	691.2
334.348	1095.4
334.744	687.6
335.14	687.8
335.536	686.2
335.932	708
336.328	694.8
336.724	696.2
337.12	696
337.516	693.6
337.913	694.2
338.309	703.2
338.705	689.8
339.102	703.6
339.498	686.2
339.895	702
340.291	681.6
340.688	698.4
341.085	683.6
341.481	689.2
341.878	688.6
342.275	717.6
342.672	684.8
343.069	688
343.466	681
343.842	692
344.239	687.2
344.636	697.6
345.033	693.4
345.431	673.8
345.828	695.4
346.225	680.8
346.623	726.6
347.02	694
347.418	696.2
347.816	707.6
348.213	684.4
348.611	702.2
349.009	692.8
349.407	699.6
349.805	681
350.203	670
350.601	704
350.999	681.4
351.397	768.2
351.795	695
352.193	702.8
352.57	703.8
352.969	701.2
353.367	680.6
353.766	676
354.164	693.6
354.563	689.2
354.961	687.8
355.36	683.4
355.759	691
356.158	685.6
356.557	684.8
356.956	673.4
357.355	676.8
357.754	701.4
358.153	700.6
358.552	717.8
358.951	685.8
359.35	699.8
359.75	679.8
360.149	672.8
360.527	671.4
360.926	687.8
361.326	693.6
361.726	682.6
362.125	671
362.525	693.6
362.925	682.8
363.325	685.4
363.724	686
364.124	684.4
364.524	678
364.924	678.4
365.324	697
365.725	676
366.125	697.4
366.525	689.2
366.904	675.6
367.304	669.8
367.705	709.4
368.105	704.8
368.506	687
368.906	686
369.307	682.8
369.708	689.4
370.108	665.8
370.509	692.8
370.91	676.8
371.311	689
371.712	683.2
372.113	685
372.514	669.6
372.894	682.4
373.295	686.6
373.696	698.2
374.097	696.8
374.499	722
374.9	689
375.301	674.2
375.703	682
376.105	679.2
376.506	686
376.908	689.8
377.309	678.8
377.711	686
378.113	686
378.493	685.8
378.895	672.4
379.297	693
379.699	669.8
380.102	687.6
380.504	691.8
380.906	672.8
381.308	718.6
381.71	683
382.113	693.6
382.515	670.4
382.918	674.8
383.299	687.6
383.701	692
384.104	695.4
384.507	660.4
384.909	680
385.312	667.6
385.715	675
386.118	677.6
386.521	665.2
386.924	696.6
387.327	678.6
387.709	656.6
388.112	664.2
388.515	674.4
388.918	675.8
389.322	683.6
389.725	672.4
390.129	713.8
390.532	693.8
390.936	675.6
391.339	671.2
391.743	688
392.125	671.8
392.529	694.4
392.933	691.2
393.337	684.4
393.74	674.6
394.144	682.8
394.548	663.6
394.953	679.6
395.357	689.2
395.761	683.2
396.144	681.6
396.548	681.8
396.952	681
397.357	678.6
397.761	677.4
398.166	678
398.57	685.4
398.975	670.2
399.379	686.2
399.763	731.8
400.168	680
400.572	678
400.977	678.2
401.382	705.2
401.787	699
402.192	697
402.597	702
403.002	682.4
403.386	703.4
403.791	702.4
404.197	681
404.602	675.8
405.007	686.8
405.413	677.8
405.818	688.2
406.224	675.6
406.608	684.2
407.014	672.8
407.42	700
407.825	674.2
408.231	694.6
408.637	686.2
409.043	704.8
409.449	679.2
409.834	671.2
410.24	682.6
410.646	697.2
411.052	686.8
411.458	688.4
411.865	692.2
412.271	686.8
412.677	686.6
413.062	687.2
413.469	674.6
413.875	712.4
414.282	698.2
414.689	683.8
415.095	696.2
415.502	679.8
415.888	689.6
416.294	668.2
416.701	726.4
417.108	671.2
417.515	695.8
417.923	676.4
418.33	706.4
418.715	697.4
419.123	682.4
419.53	683
419.937	683.6
420.345	703.4
420.752	693.2
421.16	698
421.546	689.6
421.953	692.4
422.361	678.6
422.769	684
423.177	675.4
423.585	710.4
423.992	719.4
424.379	693.2
424.787	697.6
425.195	706
425.603	685.2
426.011	698.4
426.419	692.2
426.806	686.2
427.214	681.8
427.623	691.4
428.031	701
428.44	688.8
428.848	702.4
429.235	703.2
429.644	684
430.053	695.8
430.461	707.4
430.87	718
431.279	705.8
431.666	684.2
432.075	692.8
432.484	699.8
432.893	685.6
433.302	712.2
433.711	742.4
434.099	690.4
434.508	688.6
434.918	670.8
435.327	692.2
435.737	692.8
436.125	686.2
436.534	679.4
436.944	690.6
437.353	694.8
437.763	706
438.173	675.6
438.561	694.4
438.971	663.2
439.381	681.4
439.791	687.8
440.201	662.2
440.589	695.8
440.999	696.2
441.409	691.4
441.819	671.2
442.23	697.8
442.619	693.2
443.029	682
443.439	683.8
443.85	697.6
444.26	703.4
444.649	693.8
445.06	689.2
445.471	678.2
445.881	678.8
446.292	700.4
446.682	703
447.092	662.4
447.503	741
447.914	683.2
448.325	683.2
448.715	684.4
449.126	674.4
449.537	686
449.948	691.4
450.338	682.4
450.75	679.6
451.161	686.4
451.572	697.6
451.984	679
452.374	663.8
452.786	675.6
453.197	688.8
453.609	697
453.999	663.2
454.411	671
454.823	695.2
455.235	681
455.647	683.4
456.037	680.6
456.449	663
456.862	680.4
457.274	682.8
457.665	673.8
458.077	686.2
458.489	715.6
458.902	677.4
459.293	680
459.705	686.6
460.118	672.2
460.53	687.6
460.921	678
461.334	681
461.747	684.6
462.16	693
462.551	696.6
462.964	692.6
463.377	671.8
463.79	679
464.182	696.6
464.595	671.6
465.008	685
465.421	684.6
465.813	678.4
466.226	686.8
466.64	675.8
467.053	730.8
467.445	697.8
467.859	704.8
468.272	690.6
468.686	697
469.078	674.8
469.492	666
469.906	675.6
470.298	686
470.712	672.6
471.126	743.4
471.54	660.8
471.933	670.2
472.347	680.4
472.761	671.4
473.175	661.8
473.568	672.4
473.982	664.8
474.397	682.8
474.79	683.8
475.204	683.8
475.619	687.2
476.033	684.8
476.426	679.2
476.841	682.8
477.256	701.2
477.649	665.6
478.064	670.4
478.479	669
478.872	663
479.287	659.8
479.702	680.4
480.118	676.6
480.511	683.2
480.927	681.2
481.342	672
481.736	674
482.151	673.6
482.566	691.2
482.96	680.4
483.376	684.8
483.792	671.8
484.186	674.2
484.602	666.4
485.017	675.4
485.412	668.8
485.827	680.4
486.243	675.6
486.638	708.8
487.054	692.8
487.47	696.8
487.865	672.6
488.281	669.2
488.697	668.2
489.092	675.4
489.508	672.2
489.925	685.2
490.32	671
490.736	679.2
491.153	678.4
491.548	676.6
491.964	687.8
492.381	661.4
492.776	681.8
493.193	670.4
493.61	686
494.006	676.2
494.422	680.6
494.84	664.4
495.235	684.8
495.652	677.6
496.069	680.4
496.465	657.2
496.883	665.2
497.3	686
497.696	667.8
498.113	684.4
498.509	662.4
498.927	663.8
499.344	665.8
499.741	664.4
500.158	684.6
500.576	690
500.973	676.4
501.39	663.6
501.787	663.4
502.205	679.2
502.623	671
503.02	658
503.438	665.4
503.856	673.4
504.253	679.4
504.671	672.4
505.068	667
505.486	672.2
505.905	692.8
506.302	670
506.72	685.2
507.118	663.6
507.536	670.2
507.955	666.4
508.352	668.6
508.771	683.6
509.169	676.6
509.587	666
510.006	671.6
510.404	650
510.823	658.2
511.221	658
511.64	674.8
512.038	687.8
512.457	676.2
512.877	675.6
513.275	665.4
513.694	668.8
514.092	672.4
514.512	674
514.91	674
515.33	672.2
515.749	668.8
516.148	678.2
516.568	683.4
516.966	676.4
517.386	665.2
517.785	661.8
518.205	659.2
518.603	666
519.024	660.4
519.444	675
519.843	682.8
520.263	682.4
520.662	662.4
521.082	673
521.481	672.6
521.902	665.8
522.301	675.4
522.722	677.2
523.121	672.8
523.542	671.4
523.963	670.8
524.362	674
524.783	669.8
525.183	677
525.604	674
526.003	668.8
526.425	662
526.824	677.6
527.246	676.4
527.646	682.8
528.067	670.8
528.467	675.6
528.888	683
529.289	672.4
529.71	666.4
530.11	654.6
530.532	661.6
530.932	651
531.354	660.6
531.755	707.4
532.176	680.8
532.577	664.6
532.999	666.4
533.4	664.8
533.822	682.8
534.223	674.6
534.645	668.8
535.046	665
535.468	676.6
535.869	686.2
536.292	662.6
536.693	716.6
537.115	671
537.516	666.4
537.939	669.6
538.34	682.2
538.742	687.4
539.165	666.6
539.566	671.6
539.989	658.2
540.391	663.2
540.814	666.8
541.216	667.2
541.639	671.4
542.041	681
542.464	671.8
542.866	670.6
543.268	650.6
543.691	682
544.093	666.6
544.517	690
544.919	662
545.343	691.4
545.745	663.6
546.147	670.2
546.571	663.6
546.974	661.2
547.398	675
547.8	681.4
548.224	670.4
548.627	650
549.03	675
549.454	664.6
549.857	651.6
550.281	658.2
550.684	667.2
551.087	682
551.512	671.6
551.915	674.8
552.34	668.6
552.743	667
553.146	678
553.571	676.8
553.975	682.4
554.399	653.4
554.803	719
555.207	659
555.632	656.4
556.036	677.2
556.461	653.4
556.865	671.4
557.268	669.8
557.694	664.6
558.098	679.2
558.502	672.2
558.927	661.6
559.332	668.2
559.736	661.6
560.162	679
560.566	671.8
560.992	675.6
561.396	669.6
561.801	664.2
562.227	667.2
562.631	673.6
563.036	672
563.462	681.2
563.867	671.2
564.272	655.2
564.698	672.2
565.103	655.4
565.508	681.2
565.935	676.6
566.34	668.2
566.745	675.4
567.172	668.4
567.577	700.6
567.982	692
568.409	675.8
568.815	655.2
569.22	668.2
569.626	674.4
570.053	660.2
570.459	677.4
570.865	682.8
571.292	677
571.698	680.6
572.104	656.6
572.531	666.2
572.937	681.2
573.343	668.2
573.75	667.2
574.177	669.6
574.583	676.8
574.99	674.8
575.396	670.4
575.824	673
576.231	680
576.637	662.6
577.065	695.8
577.472	672.2
577.879	668.2
578.286	679.8
578.714	664.2
579.121	662.8
579.528	662.4
579.935	673
580.364	666.4
580.771	648.2
581.178	662
581.585	676.8
582.014	674.4
582.421	664.8
582.829	665.2
583.236	672.2
583.644	664.2
584.073	677
584.481	669
584.889	668.4
585.296	664.2
585.726	671.6
586.134	653.2
586.542	660.6
586.95	693
587.358	651
587.787	666
588.196	654.6
588.604	663.2
589.012	668
589.421	655
589.851	666.2
590.259	663.6
590.668	666.2
591.076	712
591.485	659.4
591.894	668.4
592.324	689.6
592.733	681.4
593.142	648
593.551	664.8
593.96	672
594.369	652.4
594.8	657.6
595.209	662.8
595.618	643.8
596.028	662
596.437	655.2
596.847	662.8
597.256	671.2
597.687	670.8
598.097	663.8
598.507	658.8
598.917	663.2
599.327	669.6
599.736	670.4
600.146	678
600.556	665.6
600.988	680
601.398	654.8
601.808	671
602.219	656.6
602.629	671.2
603.039	662
603.45	696.4
603.86	671.6
604.271	675.2
604.703	664.4
605.114	668.2
605.525	669.8
605.935	667
606.346	693.4
606.757	674.4
607.168	675.2
607.579	667.8
607.99	686.2
608.402	658.6
608.813	668.2
609.224	660
609.636	657
610.047	657.6
610.48	670.8
610.892	674.6
611.303	677.6
611.715	666.2
612.127	655.4
612.539	666.2
612.95	670.6
613.362	654.2
613.774	660.4
614.186	663.4
614.599	657.6
615.011	675.6
615.423	664
615.835	653.8
616.248	656.6
616.66	670.8
617.073	655.6
617.485	668.6
617.898	676.8
618.311	661
618.723	661.6
619.136	709.4
619.549	677.8
619.962	691.2
620.375	664
620.788	668
621.201	654.4
621.614	662
622.028	669.2
622.441	658.8
622.854	676.6
623.268	652.4
623.681	672.4
624.095	664.4
624.509	671.6
624.922	662.2
625.336	646.8
625.728	667
626.142	673.8
626.556	679.8
626.97	668.6
627.384	654
627.799	671.8
628.213	675.6
628.627	663.4
629.041	657
629.456	667.8
629.87	661.4
630.285	674
630.699	675
631.093	664
631.507	676.8
631.922	668.8
632.337	676.2
632.752	651.2
633.167	663.8
633.582	656.4
633.997	660.2
634.412	663.4
634.806	661.6
635.221	651.6
635.637	676.4
636.052	648.6
636.468	670.4
636.883	682.6
637.299	667.4
637.715	644.4
638.109	670.4
638.525	653.4
638.941	674.4
639.357	669.6
639.773	671.4
640.189	659.4
640.584	666.2
641	664.2
641.416	652.4
641.832	662.2
642.249	663.2
642.665	661.8
643.06	673
643.477	669.4
643.894	655.4
644.31	656
644.727	658.6
645.123	663
645.54	651.6
645.957	665
646.374	680.6
646.77	664.6
647.187	693.8
647.604	662.4
648.021	648.8
648.439	667
648.835	663.8
649.252	663
649.67	649.6
650.088	658.2
650.484	664.2
650.902	666.8
651.32	672
651.738	661.2
652.134	668
652.552	678.8
652.971	665.2
653.389	663.2
653.786	674.6
654.204	679.6
654.622	647
655.019	658.2
655.438	670.2
655.857	660.2
656.275	670.2
656.673	655.4
657.091	754.8
657.51	664.8
657.908	669
658.327	682.8
658.746	654.6
659.144	664.8
659.563	677.6
659.982	667.8
660.38	662.6
660.8	667
661.219	673.8
661.617	664.2
662.037	658
662.457	686.4
662.855	650
663.275	699.6
663.695	666
664.094	664.8
664.514	660.4
664.934	658.4
665.333	664.8
665.753	659
666.152	651.8
666.572	657.4
666.993	674.6
667.392	663
667.812	671.4
668.212	661.8
668.632	674.2
669.053	672.2
669.453	667.2
669.874	661.6
670.273	667.6
670.694	653.2
671.116	670.8
671.515	675.6
671.937	659.2
672.337	664.4
672.758	660.2
673.158	667.8
673.58	649.6
673.98	665.4
674.402	676.4
674.824	665.2
675.224	665.6
675.646	649.8
676.047	656.4
676.469	664.4
676.869	662.6
677.292	667.6
677.693	660.2
678.115	666.2
678.516	670
678.939	669.4
679.34	665.2
679.762	673.8
680.164	668.4
680.586	654.6
680.988	674.4
681.411	694.4
681.812	668.6
682.236	656.6
682.637	650.6
683.061	661.6
683.462	657
683.864	653.8
684.288	666.4
684.69	657.2
685.114	675.6
685.516	675.8
685.94	652
686.342	664.2
686.766	660.4
687.168	660.8
687.571	683.2
687.995	663.2
688.398	651
688.822	663.6
689.225	674
689.628	693.8
690.052	665
690.456	666
690.88	668.8
691.284	646.8
691.687	667.4
692.112	649.2
692.515	652.8
692.919	656.6
693.344	670
693.747	662.8
694.173	654.6
694.577	671.2
694.98	658.6
695.406	662.8
695.81	671.4
696.214	666.6
696.64	673
697.044	659.4
697.448	678
697.874	658.8
698.279	651.2
698.684	652.4
699.11	653.4
699.514	660.8
699.919	654.8
700.324	655.8
700.75	663
701.156	663.2
701.561	680.6
701.987	671.8
702.393	668.2
702.798	681
703.203	662.6
703.63	661
704.036	658.6
704.442	663.2
704.847	649.6
705.274	657.2
705.68	670
706.086	673.2
706.492	653.6
706.92	656
707.326	667.8
707.732	659
708.139	654.6
708.545	653
708.973	656.4
709.38	666.6
709.786	651.2
710.193	674.4
710.6	661.2
711.028	652.2
711.435	659.6
711.842	665.6
712.249	663.2
712.656	654.2
713.064	675.2
713.492	647.6
713.9	657
714.307	659.2
714.715	663.2
715.123	663.2
715.53	662.6
715.938	666.8
716.367	672.2
716.775	659.8
717.184	651.6
717.592	657.4
718	675.8
718.408	691.2
718.816	712.2
719.225	667
719.633	653.4
720.042	649.8
720.472	651.2
720.881	680.8
721.29	656
721.699	653
722.108	666.2
722.517	660.2
722.926	654.2
723.335	670.8
723.744	659.4
724.154	658
724.563	663
724.973	659
725.382	665.6
725.792	651
726.202	649.8
726.612	682.6
727.022	652.2
727.432	652.8
779.813	657.2
780.223	715.2
780.634	655
781.044	653.2
781.454	663
781.865	672.2
782.276	645.8
782.686	664
783.097	654.4
783.508	658.2
783.919	673.2
784.33	673.4
784.741	676.2
785.152	656.6
785.563	641.4
785.974	649.2
786.386	672.8
786.776	656
787.188	659
787.599	654
788.011	666.6
788.423	661.8
788.835	648.4
789.247	644
789.659	653
790.071	652.4
790.483	710.8
790.874	652
791.286	671.8
791.699	647.6
792.111	657
792.524	659.6
792.937	653.8
793.349	657.4
793.741	649.4
794.154	644
794.567	676.4
794.98	662.6
795.393	646.2
795.785	678.8
796.198	657
796.612	658
797.026	654
797.439	632.6
797.831	659.2
798.245	644.2
798.659	658.4
799.073	655.2
799.487	654.6
799.88	657.6
800.294	660
800.708	659.6
801.123	668
801.516	680
801.93	639.6
802.345	644.8
802.76	664.6
803.153	680
803.568	668.4
803.983	668.2
804.377	659.6
804.792	640.2
805.207	642
805.601	663.6
806.016	692.8
806.432	655.6
806.826	693
807.242	673.4
807.658	657.4
808.052	658.8
808.468	651.2
808.884	659.8
809.279	653
809.695	674.2
810.111	681.8
810.506	662.8
810.922	680.8
811.339	656.8
811.734	663
812.151	655
812.546	650.6
812.963	657.8
813.38	667
813.776	668.4
814.193	689.8
814.589	649.8
815.006	661.2
815.402	655
815.82	648.8
816.237	663.6
816.633	668.2
817.051	650
817.448	657.2
817.866	645.6
818.262	680.8
818.68	654.2
819.077	656
819.495	658
819.892	706
820.311	657.6
820.708	650.2
821.127	651.2
821.524	677.4
821.943	660.8
822.34	678.6
822.759	661.4
823.157	656.4
823.576	680.4
823.974	674.4
824.393	793
824.791	666
825.189	644.6
825.609	657.6
826.007	661.2
826.427	649.6
826.826	652.2
827.246	655.6
827.644	638.4
828.043	667.4
828.463	656
828.862	664.2
829.261	655.6
829.682	650
830.081	665.4
830.502	653.6
830.901	659
831.301	644.6
831.722	646.6
832.121	662.4
832.521	655.4
832.943	658
833.342	659
833.742	652.2
834.164	660
834.564	647.4
834.965	655.2
835.386	654.4
835.787	658
836.188	654.8
836.588	657.8
837.01	646.8
837.411	643.4
837.812	660.6
838.213	663.8
838.636	650.4
839.037	731.4
839.438	656
839.84	658.8
840.263	667
840.664	663
841.066	648.6
841.468	665
841.891	652.6
842.293	666.4
842.695	664.2
843.098	663
843.5	655.2
843.902	659.4
844.326	667.8
844.729	657
845.131	670
845.534	658.8
845.937	667.8
846.34	682.4
846.764	650.6
847.167	661
847.571	643.4
847.974	648.8
848.377	655.8
848.781	719
849.184	670.6
849.588	648.2
849.992	652.6
850.396	663.8
850.821	681.8
851.225	661
851.63	657.2
852.034	671.4
852.438	661.8
852.843	709.8
853.247	652.6
853.652	654.8
854.057	676
854.462	664
854.867	663.2
855.272	687
855.677	666
856.082	651.8
856.487	651.4
856.893	660.8
