#lambda/nm	C1
208.295	533.4
208.67	489.4
209.045	447.6
209.419	453.8
209.794	681
210.169	663.8
210.544	799.2
210.919	694.4
211.295	670.8
211.67	679
212.045	674
212.421	677.6
212.796	730.2
213.172	678.2
213.547	679
213.923	676
214.299	676
214.675	699.4
215.051	687.4
215.427	689.6
215.803	702.8
216.179	703.4
216.555	687.2
216.932	682.8
217.308	681.2
217.684	694.6
218.061	695.2
218.438	687
218.814	673.8
219.191	689.8
219.568	673.6
219.945	681.4
220.322	693.4
220.699	695.8
221.076	689.8
221.453	690
221.83	679.8
222.208	674.6
222.585	679.6
222.962	685
223.34	695.8
223.717	689
224.095	690.4
224.473	683.6
224.851	682.2
225.229	671.6
225.607	711
225.985	680.6
226.363	689
226.741	693.2
227.119	688.4
227.497	697.6
227.876	669.8
228.254	691.8
228.633	693.6
229.011	679
229.39	684.4
229.769	693.6
230.148	687.4
230.527	709
230.905	687.6
231.284	691.8
231.664	673.8
232.043	696.2
232.422	688.2
232.801	682.6
233.181	688.2
233.56	686.8
233.94	688.6
234.319	677.2
234.699	688.2
235.079	723.2
235.458	734.2
235.838	709
236.218	682.8
236.598	671.4
236.978	678.2
237.358	678
237.738	680.6
238.119	687.8
238.499	668.6
238.88	681.6
239.26	694.6
239.641	667
240.021	671.2
240.402	676.2
240.783	679.4
241.163	677.6
241.544	688.8
241.925	685
242.306	704.4
242.687	676.2
243.069	680
243.45	694.8
243.831	677.4
244.212	679.4
244.594	720.6
244.975	692.2
245.357	693.4
245.739	686.6
246.12	690.6
246.502	699
246.884	685.2
247.266	692
247.648	688.4
248.03	707.6
248.412	695.2
248.794	694.2
249.176	680
249.559	692.6
249.941	674.4
250.323	677.4
250.706	678.4
251.089	688.6
251.471	687
251.854	690.4
252.237	686.4
252.62	700.2
253.002	683.6
253.385	678
253.769	692.2
254.152	677.8
254.535	691.6
254.918	672.6
255.301	687.6
255.685	678.8
256.068	668
256.452	714.6
256.835	691.6
257.219	696.4
257.603	693.6
257.986	676.4
258.37	687.6
258.754	673.8
259.138	688.6
259.522	695.8
259.906	676.4
260.29	690.6
260.675	689.4
261.059	686.4
261.443	672
261.828	694
262.212	693.2
262.597	673
262.981	675.8
263.366	690.6
263.751	682
264.136	680.4
264.521	677.4
264.906	679.8
265.291	689.6
265.676	679.8
266.061	685.6
266.446	703
266.831	687.6
267.217	716
267.602	684.8
267.987	680.4
268.373	685.8
268.759	695.8
269.144	694.8
269.53	685.4
269.916	686.8
270.302	683.8
270.688	685.6
271.074	684.8
271.46	708.2
271.846	726.2
272.232	689.6
272.618	676.8
273.004	686
273.391	704.2
273.777	710.8
274.164	692
274.55	696.6
274.937	692.8
275.324	689
275.71	686
276.097	693.6
276.484	683.6
276.871	688.4
277.258	692.2
277.645	674.6
278.032	685.6
278.419	676.2
278.807	684.8
279.194	682.6
279.581	679.4
279.969	693.4
280.356	689.2
280.744	691.6
281.131	708.8
281.519	701.8
281.907	684.8
282.295	678.2
282.682	698
283.07	693.2
283.458	703.4
283.846	706.8
284.235	701.4
284.623	702.4
285.011	684.4
285.399	686.2
285.788	690.2
286.176	678.6
286.565	700.4
286.953	683
287.342	687
287.731	686.8
288.119	684.6
288.508	681.4
288.897	685
289.286	670.6
289.675	682.6
290.064	691.2
290.453	675.2
290.821	679.6
291.21	702.8
291.599	681.6
291.989	676.2
292.378	689.4
292.768	702.4
293.157	685.2
293.547	694.4
293.936	680.6
294.326	676.8
294.716	677
295.106	681.2
295.496	693.4
295.886	701
296.276	680.2
296.666	669.4
297.056	679.2
297.446	669.6
297.836	699.2
298.227	683.2
298.617	687.8
299.008	698.6
299.398	689.8
299.789	672.8
300.179	687
300.57	703.8
300.961	685.4
301.352	685.4
301.742	702.2
302.133	681
302.524	688.4
302.915	685.2
303.307	681.8
303.698	689
304.089	685
304.48	683
304.872	686.2
305.263	679
305.655	672.2
306.046	695.6
306.438	699.4
306.829	685.2
307.221	697.8
307.613	699.6
308.005	697.4
308.397	706.8
308.789	708.2
309.181	717.4
309.573	715.8
309.965	694.2
310.357	694.6
310.749	698.2
311.142	680
311.534	684
311.926	698.2
312.319	697.2
312.711	677
313.104	703.8
313.497	681
313.889	732.2
314.282	710.6
314.675	717.4
315.068	694.8
315.461	700.2
315.854	725.4
316.247	701.8
316.64	694.2
317.033	697
317.405	700.6
317.798	683.6
318.192	694.6
318.585	680.8
318.979	690.6
319.372	689
319.766	690.6
320.16	709.2
320.553	702.2
320.947	713
321.341	683.4
321.735	682.2
322.129	679.2
322.523	715.4
322.917	677
323.311	705.4
323.705	690.4
324.099	696.2
324.494	713.8
324.888	695.8
325.282	696.4
325.677	717
326.071	697.6
326.466	702.2
326.861	696.4
327.255	694.4
327.65	706.8
328.045	699.4
328.44	688.6
328.835	690.4
329.23	684
329.625	721
330.02	677
330.415	721.2
330.81	688
331.206	692.6
331.601	681
331.996	705.6
332.37	714.6
332.766	677.4
333.161	721.8
333.557	693.4
333.953	695.2
334.348	1072
334.744	688.8
335.14	682.6
335.536	687.8
335.932	704
336.328	684.4
336.724	700.6
337.12	689.8
337.516	695.2
337.913	688.2
338.309	702
338.705	690.8
339.102	701.6
339.498	693.4
339.895	708
340.291	684.4
340.688	704.8
341.085	675.6
341.481	685
341.878	685.8
342.275	706.2
342.672	675.8
343.069	681.2
343.466	669.8
343.842	705.6
344.239	676.6
344.636	687.8
345.033	684
345.431	674.6
345.828	690.4
346.225	670.2
346.623	726
347.02	687
347.418	696.6
347.816	712.6
348.213	674.6
348.611	698.4
349.009	682.4
349.407	712.4
349.805	678.8
350.203	670.8
350.601	701.4
350.999	685.4
351.397	753.2
351.795	687.2
352.193	689.8
352.57	690
352.969	695.8
353.367	667
353.766	677.6
354.164	681.2
354.563	690.4
354.961	689.4
355.36	676
355.759	681.4
356.158	675.4
356.557	679.4
356.956	676.6
357.355	671.6
357.754	689.4
358.153	687
358.552	724.8
358.951	678
359.35	696.4
359.75	680.4
360.149	664
360.527	661.6
360.926	668.2
361.326	685.2
361.726	672.2
362.125	677
362.525	703.4
362.925	672
363.325	691
363.724	675.4
364.124	672
364.524	673.6
364.924	675.8
365.324	695.8
365.725	666.6
366.125	690.6
366.525	680.8
366.904	671.6
367.304	664
367.705	705
368.105	696.8
368.506	674.6
368.906	687.4
369.307	677.2
369.708	695.2
370.108	664
370.509	695.8
370.91	679.4
371.311	685.8
371.712	679.8
372.113	678.6
372.514	667.2
372.894	672.4
373.295	672.4
373.696	694.6
374.097	687.4
374.499	717.8
374.9	679.8
375.301	678
375.703	677.8
376.105	675.4
376.506	680
376.908	684.8
377.309	685.6
377.711	686.6
378.113	676.8
378.493	683.4
378.895	671.8
379.297	689
379.699	672
380.102	685.8
380.504	670.8
380.906	669.2
381.308	709
381.71	686
382.113	687.2
382.515	685
382.918	691.2
383.299	680.4
383.701	691.2
384.104	685
384.507	655.4
384.909	680.4
385.312	668.8
385.715	664.2
386.118	680.4
386.521	665
386.924	699
387.327	674.2
387.709	656.6
388.112	662.6
388.515	669.8
388.918	685.2
389.322	683.6
389.725	677.6
390.129	715
390.532	682.2
390.936	677.8
391.339	671.8
391.743	680.2
392.125	667.4
392.529	696.2
392.933	694
393.337	678.4
393.74	671.2
394.144	674.2
394.548	671.8
394.953	672
395.357	674.2
395.761	676.8
396.144	679.8
396.548	666.8
396.952	670.2
397.357	675.4
397.761	663.4
398.166	668.6
398.57	676.2
398.975	664.2
399.379	682.6
399.763	726.6
400.168	679.4
400.572	669.6
400.977	672.4
401.382	705
401.787	685.4
402.192	696.8
402.597	683
403.002	657.4
403.386	699.6
403.791	694.4
404.197	679.4
404.602	677.4
405.007	678.8
405.413	672.4
405.818	689.2
406.224	676.2
406.608	668.4
407.014	665.8
407.42	693.4
407.825	678.8
408.231	688.2
408.637	678
409.043	704.4
409.449	675
409.834	666.4
410.24	681.6
410.646	687.4
411.052	692.2
411.458	685.6
411.865	682.4
412.271	688.6
412.677	679.4
413.062	692
413.469	674.8
413.875	699.6
414.282	696.8
414.689	687
415.095	687.2
415.502	681.2
415.888	682.6
416.294	668.8
416.701	724
417.108	678.8
417.515	691.4
417.923	686
418.33	710.4
418.715	683.2
419.123	678.8
419.53	682.6
419.937	687
420.345	694.8
420.752	682
421.16	695.2
421.546	678
421.953	688.8
422.361	667.6
422.769	694
423.177	672.2
423.585	709.2
423.992	710
424.379	694.2
424.787	691
425.195	703.4
425.603	688.4
426.011	695.2
426.419	698.8
426.806	683.2
427.214	688.4
427.623	700.6
428.031	694.4
428.44	684.2
428.848	704
429.235	704.6
429.644	694.6
430.053	694
430.461	705.2
430.87	712.6
431.279	691.8
431.666	676.6
432.075	691.6
432.484	698
432.893	677.6
433.302	705.6
433.711	743.2
434.099	681
434.508	678.8
434.918	675
435.327	694
435.737	685.8
436.125	684.2
436.534	688.2
436.944	690.2
437.353	697.8
437.763	709.4
438.173	675.6
438.561	697.4
438.971	665.4
439.381	676.6
439.791	682.6
440.201	658.6
440.589	684.6
440.999	699.4
441.409	688
441.819	673.2
442.23	694.2
442.619	692.8
443.029	681.8
443.439	682
443.85	694.8
444.26	702.6
444.649	685.8
445.06	689.2
445.471	670
445.881	684.8
446.292	701.6
446.682	702.6
447.092	661.2
447.503	739.8
447.914	678.8
448.325	678.4
448.715	675.6
449.126	674.4
449.537	672.6
449.948	677.4
450.338	680.2
450.75	690.8
451.161	678.6
451.572	683.2
451.984	671.2
452.374	660
452.786	676.6
453.197	681.8
453.609	690
453.999	663.8
454.411	672.2
454.823	695.4
455.235	681.8
455.647	674
456.037	672.4
456.449	672.4
456.862	678.4
457.274	687.4
457.665	662.4
458.077	675
458.489	703.6
458.902	679.6
459.293	681.6
459.705	678.8
460.118	677
460.53	676.6
460.921	679.2
461.334	680.4
461.747	680
462.16	686.8
462.551	691.8
462.964	686.2
463.377	656.6
463.79	672.6
464.182	682.2
464.595	667.2
465.008	675.4
465.421	685
465.813	667.6
466.226	680.6
466.64	674
467.053	723
467.445	689.2
467.859	694
468.272	678.6
468.686	688.6
469.078	674.6
469.492	658.8
469.906	683
470.298	679.2
470.712	664.8
471.126	732.2
471.54	661.4
471.933	670.8
472.347	675.6
472.761	667
473.175	667.4
473.568	674.8
473.982	661.8
474.397	670.6
474.79	672.2
475.204	678.6
475.619	672.2
476.033	679.4
476.426	678
476.841	664.2
477.256	701.6
477.649	662.6
478.064	665.2
478.479	664.6
478.872	664.4
479.287	657.4
479.702	667.8
480.118	670.4
480.511	676.8
480.927	670.4
481.342	666.8
481.736	663
482.151	664
482.566	687.4
482.96	664.4
483.376	685.8
483.792	662.2
484.186	681
484.602	667.4
485.017	670.8
485.412	674
485.827	678.2
486.243	675.4
486.638	702.6
487.054	684.8
487.47	694.6
487.865	668.4
488.281	673.2
488.697	664.8
489.092	677.6
489.508	664.8
489.925	677
490.32	656
490.736	672.4
491.153	673.2
491.548	677.8
491.964	687.2
492.381	656.2
492.776	676.2
493.193	677.8
493.61	684.8
494.006	676.8
494.422	674.4
494.84	662
495.235	682
495.652	673
496.069	671.2
496.465	663
496.883	674.8
497.3	701.6
497.696	667
498.113	673
498.509	657.4
498.927	656.6
499.344	657.6
499.741	651.4
500.158	673.8
500.576	688.8
500.973	666.4
501.39	652.4
501.787	652.6
502.205	667.8
502.623	664
503.02	656.2
503.438	661.2
503.856	668.2
504.253	665.2
504.671	669.8
505.068	658.6
505.486	663
505.905	686.2
506.302	668.2
506.72	676.4
507.118	660.8
507.536	668.2
507.955	668.2
508.352	665.4
508.771	670
509.169	674
509.587	666.2
510.006	669.6
510.404	651.4
510.823	667.8
511.221	662
511.64	666.4
512.038	678.4
512.457	664.6
512.877	668.8
513.275	661.2
513.694	668.8
514.092	659.8
514.512	674.2
514.91	666.2
515.33	667.6
515.749	666
516.148	670.8
516.568	670.4
516.966	668.8
517.386	660.4
517.785	662.4
518.205	655.4
518.603	660.4
519.024	655.6
519.444	679.4
519.843	686.6
520.263	673
520.662	671
521.082	666.2
521.481	682.2
521.902	677.8
522.301	662.8
522.722	672.2
523.121	667.2
523.542	666.6
523.963	663.2
524.362	664.6
524.783	665.2
525.183	670.8
525.604	673.4
526.003	664.6
526.425	662.4
526.824	686.2
527.246	673.2
527.646	672.6
528.067	666.8
528.467	674.8
528.888	675.8
529.289	668.4
529.71	668
530.11	667.6
530.532	657.8
530.932	657.4
531.354	655.4
531.755	707.6
532.176	674.2
532.577	671.8
532.999	664.4
533.4	661.4
533.822	676
534.223	664.2
534.645	666
535.046	664
535.468	670.6
535.869	686.2
536.292	659
536.693	704.6
537.115	670.6
537.516	663
537.939	669.2
538.34	686
538.742	684.4
539.165	668.4
539.566	670
539.989	650.8
540.391	656.4
540.814	664
541.216	667.2
541.639	669.8
542.041	674.8
542.464	657
542.866	663.8
543.268	653.8
543.691	676.6
544.093	668.2
544.517	684.6
544.919	657.8
545.343	698
545.745	657.4
546.147	671.8
546.571	664
546.974	654.6
547.398	667.2
547.8	682.8
548.224	664.8
548.627	661.2
549.03	665.2
549.454	666.8
549.857	648.6
550.281	652.8
550.684	657.8
551.087	682
551.512	664
551.915	673.6
552.34	662.8
552.743	658.4
553.146	659.2
553.571	664.6
553.975	693.4
554.399	658.2
554.803	719.6
555.207	660.4
555.632	653
556.036	667.4
556.461	652.4
556.865	669.6
557.268	653.4
557.694	671.2
558.098	669.8
558.502	672.8
558.927	652.2
559.332	665
559.736	665.6
560.162	675.6
560.566	657.6
560.992	671.2
561.396	666.4
561.801	668.8
562.227	663
562.631	667.8
563.036	670
563.462	675.6
563.867	666.8
564.272	649.2
564.698	667.4
565.103	648.2
565.508	689.4
565.935	672.8
566.34	664
566.745	679.2
567.172	665
567.577	682.8
567.982	679
568.409	665.6
568.815	648.6
569.22	667.6
569.626	670
570.053	656.2
570.459	665.8
570.865	672.2
571.292	677.6
571.698	664.8
572.104	644.8
572.531	656.2
572.937	670.4
573.343	665
573.75	660
574.177	664.2
574.583	665.6
574.99	659.2
575.396	670.4
575.824	659.2
576.231	675
576.637	657
577.065	699
577.472	668.6
577.879	667
578.286	675.4
578.714	663.4
579.121	656.2
579.528	672.8
579.935	672.6
580.364	660.4
580.771	648
581.178	654.8
581.585	665
582.014	669.2
582.421	658.4
582.829	660.2
583.236	670.6
583.644	661
584.073	670.6
584.481	665.6
584.889	655.2
585.296	670.4
585.726	669.4
586.134	656.8
586.542	660.8
586.95	684.6
587.358	656.6
587.787	665.6
588.196	650.8
588.604	661.2
589.012	664
589.421	658.6
589.851	652.4
590.259	666
590.668	659
591.076	705.2
591.485	651.2
591.894	655.4
592.324	682
592.733	676.6
593.142	642.8
593.551	657.8
593.96	703.2
594.369	653.4
594.8	649
595.209	656
595.618	646.8
596.028	666
596.437	645.8
596.847	662
597.256	662
597.687	666.8
598.097	664
598.507	657.6
598.917	654.2
599.327	666.2
599.736	663
600.146	669.8
600.556	667.6
600.988	677.8
601.398	651.2
601.808	674.4
602.219	640.2
602.629	663.6
603.039	660.8
603.45	689.2
603.86	662.4
604.271	678
604.703	659.6
605.114	653.6
605.525	663.4
605.935	672.8
606.346	683
606.757	665.4
607.168	662.2
607.579	653.4
607.99	675
608.402	657.4
608.813	663.8
609.224	649.2
609.636	654
610.047	647.2
610.48	661.8
610.892	673.4
611.303	670.2
611.715	666.4
612.127	655.6
612.539	666.4
612.95	658.4
613.362	651.8
613.774	654.8
614.186	654.2
614.599	652.4
615.011	666.8
615.423	655.4
615.835	648.2
616.248	649.4
616.66	659
617.073	649.4
617.485	657.4
617.898	666
618.311	665.6
618.723	660.6
619.136	691.6
619.549	675.8
619.962	685.4
620.375	659.8
620.788	664.6
621.201	648.4
621.614	666.6
622.028	656.8
622.441	660.8
622.854	672.8
623.268	654.4
623.681	666.8
624.095	656.8
624.509	670.6
624.922	664.8
625.336	646
625.728	669
626.142	666.4
626.556	675.4
626.97	662.2
627.384	658.8
627.799	655.6
628.213	672.6
628.627	655
629.041	662.4
629.456	654.6
629.87	667.2
630.285	658.2
630.699	678.6
631.093	655
631.507	662.4
631.922	669
632.337	680.2
632.752	659.2
633.167	662.6
633.582	653.4
633.997	663
634.412	653.4
634.806	666
635.221	651
635.637	674
636.052	651
636.468	669.4
636.883	682.2
637.299	659.4
637.715	644
638.109	662.2
638.525	647.2
638.941	688.2
639.357	666.8
639.773	676
640.189	664.4
640.584	661.8
641	669.6
641.416	639.8
641.832	665
642.249	662.4
642.665	667.2
643.06	672
643.477	673.4
643.894	653.4
644.31	661.2
644.727	664.4
645.123	667.2
645.54	651.4
645.957	659.8
646.374	678.2
646.77	660.6
647.187	701.4
647.604	674.2
648.021	646.8
648.439	646.8
648.835	665
649.252	667.6
649.67	655.4
650.088	661.6
650.484	672.4
650.902	665.4
651.32	671.4
651.738	660.4
652.134	670
652.552	681.8
652.971	669
653.389	660.8
653.786	687.8
654.204	679.4
654.622	653.2
655.019	664.2
655.438	669.2
655.857	654.8
656.275	663.4
656.673	644.6
657.091	730.4
657.51	645.2
657.908	663.8
658.327	683.8
658.746	644.2
659.144	655.8
659.563	672
659.982	656
660.38	655.8
660.8	665.4
661.219	667.8
661.617	663.4
662.037	653.6
662.457	674.4
662.855	652
663.275	693.2
663.695	661
664.094	660.4
664.514	663.2
664.934	653.6
665.333	660.8
665.753	649
666.152	652.2
666.572	656.8
666.993	679.2
667.392	658.6
667.812	665.2
668.212	656
668.632	671.4
669.053	658.8
669.453	659.6
669.874	658.2
670.273	665.2
670.694	656.4
671.116	665.6
671.515	665.6
671.937	656.8
672.337	659.8
672.758	653.4
673.158	665.8
673.58	642.2
673.98	662.8
674.402	675.8
674.824	652.6
675.224	647.8
675.646	650
676.047	652.8
676.469	659
676.869	672.6
677.292	671
677.693	660.6
678.115	651.6
678.516	667.2
678.939	668.4
679.34	656.6
679.762	668.2
680.164	660.8
680.586	659.4
680.988	659
681.411	693.4
681.812	648.4
682.236	648.4
682.637	656.4
683.061	649
683.462	672.2
683.864	664.6
684.288	664.6
684.69	649.6
685.114	672.4
685.516	667.8
685.94	645
686.342	673.6
686.766	661
687.168	645.6
687.571	674.8
687.995	654
688.398	651
688.822	657.6
689.225	679.8
689.628	683.2
690.052	658.6
690.456	667.4
690.88	661.6
691.284	643.2
691.687	668
692.112	643.6
692.515	652.4
692.919	660.8
693.344	671.2
693.747	656.4
694.173	660.8
694.577	662.2
694.98	664.2
695.406	656
695.81	665.2
696.214	669.4
696.64	664
697.044	661.8
697.448	675.4
697.874	660.6
698.279	657.4
698.684	655.4
699.11	656
699.514	664.4
699.919	656.6
700.324	658.8
700.75	665.6
701.156	661.2
701.561	681.2
701.987	657.6
702.393	667.4
702.798	666.4
703.203	668.6
703.63	647.2
704.036	661
704.442	660.8
704.847	654.2
705.274	656.8
705.68	659.4
706.086	665
706.492	641.8
706.92	651.4
707.326	662.4
707.732	652.4
708.139	642.2
708.545	645
708.973	647.2
709.38	654.6
709.786	635.8
710.193	675.2
710.6	661.4
711.028	648
711.435	648.6
711.842	661.2
712.249	650.8
712.656	642.4
713.064	667
713.492	644.2
713.9	650.4
714.307	652.8
714.715	663.4
715.123	662.6
715.53	654.6
715.938	674.8
716.367	648.8
716.775	666
717.184	645.4
717.592	656
718	665.8
718.408	692.8
718.816	707.6
719.225	662.8
719.633	658.8
720.042	649.6
720.472	659.4
720.881	676.8
721.29	658.4
721.699	640.6
722.108	657.4
722.517	659.4
722.926	648
723.335	668.4
723.744	654.4
724.154	665.6
724.563	662.6
724.973	659.2
725.382	663.4
725.792	657
726.202	644
726.612	681.2
727.022	658.6
727.432	651.8
779.813	650.8
780.223	702.4
780.634	656
781.044	648
781.454	657
781.865	672.4
782.276	646.4
782.686	666.4
783.097	658
783.508	658
783.919	668.4
784.33	666
784.741	673.6
785.152	654.6
785.563	640.6
785.974	642.8
786.386	671
786.776	651.2
787.188	663.4
787.599	646.8
788.011	658.6
788.423	662.6
788.835	657.2
789.247	647
789.659	651.6
790.071	657.4
790.483	702.8
790.874	649.4
791.286	665.8
791.699	657.2
792.111	658.2
792.524	664.4
792.937	654
793.349	641.6
793.741	646.8
794.154	655.2
794.567	673.2
794.98	652.6
795.393	640.4
795.785	678.8
796.198	650
796.612	662.8
797.026	649.2
797.439	644.4
797.831	650.6
798.245	652.2
798.659	656.8
799.073	647.4
799.487	641.4
799.88	667.8
800.294	652
800.708	667.4
801.123	661.4
801.516	675.8
801.93	648.4
802.345	654
802.76	654.6
803.153	664.6
803.568	675.4
803.983	669.2
804.377	658.8
804.792	642
805.207	639.6
805.601	656
806.016	683.6
806.432	652.2
806.826	689.6
807.242	677.8
807.658	656.8
808.052	655.8
808.468	654.4
808.884	652.6
809.279	652.4
809.695	665.8
810.111	679
810.506	667.2
810.922	680.8
811.339	651.8
811.734	661.8
812.151	647.4
812.546	649.4
812.963	642
813.38	658.2
813.776	656.6
814.193	684.2
814.589	643.8
815.006	652
815.402	649.6
815.82	644.6
816.237	654.2
816.633	662.2
817.051	641.4
817.448	652.2
817.866	652
818.262	679.2
818.68	655
819.077	650.6
819.495	653
819.892	688
820.311	653.6
820.708	659.6
821.127	660
821.524	669
821.943	666
822.34	674.6
822.759	657.2
823.157	653.4
823.576	674.6
823.974	657.2
824.393	722.6
824.791	654
825.189	640.4
825.609	654
826.007	658.6
826.427	640.6
826.826	657.2
827.246	657.2
827.644	630.6
828.043	654
828.463	647.2
828.862	662.8
829.261	658.2
829.682	638.2
830.081	660.6
830.502	645.2
830.901	649.4
831.301	655.2
831.722	634.8
832.121	654
832.521	645.2
832.943	648.4
833.342	661.8
833.742	640.8
834.164	653.6
834.564	646
834.965	654.8
835.386	643
835.787	650.6
836.188	649.2
836.588	651.6
837.01	649.2
837.411	652.6
837.812	664.4
838.213	660.4
838.636	653.4
839.037	735.2
839.438	651.8
839.84	652
840.263	656.4
840.664	656.2
841.066	655
841.468	648.8
841.891	650.2
842.293	666.4
842.695	661.6
843.098	675.4
843.5	654.2
843.902	659.6
844.326	655.8
844.729	651.8
845.131	668.2
845.534	660.2
845.937	669.8
846.34	671.8
846.764	647.8
847.167	664
847.571	652.8
847.974	658.8
848.377	658
848.781	707.8
849.184	670
849.588	648.4
849.992	647
850.396	660.4
850.821	674.6
851.225	656.6
851.63	654
852.034	663
852.438	653.8
852.843	783.4
853.247	645.6
853.652	651.6
854.057	670.6
854.462	654.2
854.867	655.8
855.272	688.2
855.677	655
856.082	640.6
