#lambda/nm	C1
208.295	536.2
208.67	492.2
209.045	454.4
209.419	451.4
209.794	681.2
210.169	674.4
210.544	811.8
210.919	699
211.295	665.8
211.67	691.4
212.045	688
212.421	682.4
212.796	732.4
213.172	686.8
213.547	675
213.923	689.4
214.299	681.6
214.675	694
215.051	692.2
215.427	696.4
215.803	703
216.179	685.8
216.555	671
216.932	699.8
217.308	683.8
217.684	683.4
218.061	686.6
218.438	690.2
218.814	676.2
219.191	695.4
219.568	680.2
219.945	685.2
220.322	686.2
220.699	699.8
221.076	690.4
221.453	681
221.83	683.8
222.208	687.6
222.585	676.2
222.962	698.8
223.34	691.6
223.717	689
224.095	685.4
224.473	689.8
224.851	681.6
225.229	682
225.607	707.4
225.985	680.2
226.363	689.2
226.741	679.4
227.119	688
227.497	699.2
227.876	676.6
228.254	697.8
228.633	692.6
229.011	694
229.39	702.2
229.769	687.2
230.148	691.4
230.527	708.6
230.905	682.8
231.284	704.4
231.664	682.2
232.043	714.4
232.422	696.2
232.801	681.8
233.181	688.4
233.56	688.4
233.94	690.4
234.319	686
234.699	684.8
235.079	737.6
235.458	733
235.838	709.8
236.218	685.2
236.598	676.8
236.978	687.8
237.358	684.8
237.738	682
238.119	698.8
238.499	670
238.88	684.2
239.26	700
239.641	670.6
240.021	685.4
240.402	681.8
240.783	683.6
241.163	680.4
241.544	686.6
241.925	682.2
242.306	705.4
242.687	676.6
243.069	684.2
243.45	696.6
243.831	683.6
244.212	677.4
244.594	729
244.975	697.4
245.357	701
245.739	684.4
246.12	691.2
246.502	707.6
246.884	685.4
247.266	682.6
247.648	688
248.03	712.8
248.412	692.6
248.794	705
249.176	683.8
249.559	692.4
249.941	678.2
250.323	666
250.706	678.6
251.089	682.8
251.471	685
251.854	682.6
252.237	682.8
252.62	690.8
253.002	691.4
253.385	689.6
253.769	711.6
254.152	686.8
254.535	700.8
254.918	676.4
255.301	690.8
255.685	687
256.068	679.6
256.452	710.2
256.835	697.4
257.219	693
257.603	694.2
257.986	681.8
258.37	694.2
258.754	678
259.138	699.6
259.522	706.4
259.906	681
260.29	688.8
260.675	689.4
261.059	693.8
261.443	672.8
261.828	696.6
262.212	687.4
262.597	674.6
262.981	691.6
263.366	694.6
263.751	699.2
264.136	675.2
264.521	687.8
264.906	677.2
265.291	700
265.676	685.6
266.061	692.4
266.446	705.6
266.831	688.4
267.217	718.2
267.602	687.2
267.987	688.2
268.373	672.8
268.759	695.2
269.144	690.6
269.53	690
269.916	680.4
270.302	679.2
270.688	690.2
271.074	690.2
271.46	700
271.846	728.4
272.232	686
272.618	686.6
273.004	687
273.391	706
273.777	707.6
274.164	694.6
274.55	710
274.937	694.6
275.324	686.4
275.71	701.2
276.097	689.8
276.484	687.4
276.871	694.2
277.258	689.2
277.645	679.8
278.032	689
278.419	683.4
278.807	687.2
279.194	673.4
279.581	676.8
279.969	691.8
280.356	689
280.744	690.6
281.131	723.6
281.519	699.6
281.907	678.2
282.295	681.8
282.682	695.2
283.07	692.4
283.458	697
283.846	703.8
284.235	693.2
284.623	699.6
285.011	675.6
285.399	693.4
285.788	688.2
286.176	674.8
286.565	702.2
286.953	678.8
287.342	685.2
287.731	689.8
288.119	688.2
288.508	683.4
288.897	683.8
289.286	668.6
289.675	686.4
290.064	700.4
290.453	684.8
290.821	684.8
291.21	710.2
291.599	686.4
291.989	693
292.378	705
292.768	707.6
293.157	689.8
293.547	697.4
293.936	682
294.326	686.2
294.716	700.2
295.106	688
295.496	694.6
295.886	710.2
296.276	691.6
296.666	685.2
297.056	689.8
297.446	686.2
297.836	715.4
298.227	683.6
298.617	692.4
299.008	710.4
299.398	687.2
299.789	683
300.179	697.4
300.57	698.2
300.961	685.4
301.352	680.6
301.742	699.2
302.133	700.8
302.524	691.8
302.915	697
303.307	678.6
303.698	697.6
304.089	698
304.48	688.2
304.872	698.4
305.263	690
305.655	681.4
306.046	700
306.438	702.2
306.829	680.8
307.221	703.4
307.613	694
308.005	703
308.397	701.2
308.789	708.8
309.181	721
309.573	706.8
309.965	705.2
310.357	690.8
310.749	705.8
311.142	675.2
311.534	683.4
311.926	702.2
312.319	690.6
312.711	681.4
313.104	705
313.497	694.6
313.889	730.8
314.282	717
314.675	719.8
315.068	691.8
315.461	711
315.854	726.2
316.247	703
316.64	690.4
317.033	691.2
317.405	703.8
317.798	703.6
318.192	688
318.585	689.8
318.979	702.2
319.372	690.4
319.766	700.6
320.16	693.2
320.553	713.2
320.947	712.8
321.341	687.4
321.735	692.6
322.129	677
322.523	724
322.917	690.8
323.311	697
323.705	688.4
324.099	700
324.494	710.6
324.888	707.8
325.282	678.2
325.677	711.6
326.071	706
326.466	706.8
326.861	688
327.255	710.8
327.65	710.6
328.045	714
328.44	692.4
328.835	692.4
329.23	688.8
329.625	728.2
330.02	681
330.415	720.8
330.81	699.4
331.206	692.2
331.601	692
331.996	702
332.37	713.8
332.766	676
333.161	715.4
333.557	698.6
333.953	698.6
334.348	1095.6
334.744	686.2
335.14	696.2
335.536	692.2
335.932	706
336.328	694.2
336.724	705.8
337.12	698.6
337.516	698.2
337.913	698.6
338.309	703.2
338.705	691.8
339.102	700.2
339.498	687.6
339.895	711.6
340.291	682.2
340.688	702.8
341.085	676
341.481	693
341.878	695.4
342.275	718.2
342.672	687.8
343.069	694.4
343.466	683
343.842	708
344.239	684
344.636	689.2
345.033	680.4
345.431	682.6
345.828	696.2
346.225	680.2
346.623	731
347.02	691.2
347.418	701.4
347.816	707.4
348.213	677.2
348.611	695.8
349.009	689.2
349.407	701.4
349.805	691.6
350.203	675.4
350.601	700.2
350.999	691
351.397	753.6
351.795	693.8
352.193	690.6
352.57	700.2
352.969	705.6
353.367	670.4
353.766	683.2
354.164	687
354.563	702.2
354.961	689.6
355.36	681.4
355.759	679.8
356.158	679
356.557	673.6
356.956	673.6
357.355	674.8
357.754	693
358.153	686.8
358.552	715.8
358.951	679.4
359.35	703.2
359.75	690.2
360.149	676
360.527	679.2
360.926	679.6
361.326	683.8
361.726	684.2
362.125	677.8
362.525	689.6
362.925	691.8
363.325	682.2
363.724	688.8
364.124	685
364.524	674
364.924	684
365.324	695.8
365.725	670.2
366.125	695.6
366.525	679.2
366.904	674.6
367.304	664.4
367.705	699.2
368.105	700.2
368.506	675.4
368.906	685.2
369.307	682.6
369.708	676.2
370.108	667.8
370.509	691.6
370.91	669.2
371.311	688
371.712	687.8
372.113	674.8
372.514	667.8
372.894	675.8
373.295	674.4
373.696	696
374.097	692.8
374.499	721.2
374.9	688.6
375.301	681.4
375.703	687.2
376.105	681.2
376.506	689
376.908	688.6
377.309	677
377.711	680.4
378.113	672.2
378.493	688.2
378.895	676.2
379.297	694
379.699	677
380.102	692.4
380.504	695.8
380.906	676.8
381.308	710.8
381.71	685.4
382.113	696.2
382.515	686.8
382.918	687.8
383.299	685
383.701	700.8
384.104	684
384.507	663.4
384.909	674.8
385.312	671.6
385.715	668.8
386.118	682.6
386.521	669.8
386.924	693.6
387.327	672.8
387.709	663.4
388.112	670.2
388.515	674
388.918	670
389.322	681.6
389.725	669.2
390.129	713.4
390.532	680.6
390.936	674.8
391.339	678.2
391.743	676.4
392.125	677
392.529	688.4
392.933	694.2
393.337	694.4
393.74	677.4
394.144	685.4
394.548	677
394.953	686.6
395.357	693.6
395.761	677.2
396.144	684.8
396.548	683
396.952	687.2
397.357	678.8
397.761	682.2
398.166	671.2
398.57	684.2
398.975	668.6
399.379	686.8
399.763	729.2
400.168	670.8
400.572	686
400.977	681
401.382	710.2
401.787	696.4
402.192	700.6
402.597	701.6
403.002	663.4
403.386	695.8
403.791	699.6
404.197	668.6
404.602	682.2
405.007	674.2
405.413	683.8
405.818	680
406.224	675
406.608	677
407.014	672.2
407.42	693.8
407.825	680.2
408.231	701.6
408.637	684.8
409.043	696.2
409.449	679.2
409.834	685.8
410.24	680.2
410.646	690.4
411.052	686.8
411.458	686.4
411.865	688.8
412.271	704
412.677	684.6
413.062	696
413.469	676.4
413.875	716.4
414.282	693.4
414.689	690.4
415.095	696
415.502	672.2
415.888	683.4
416.294	667.6
416.701	728.6
417.108	673.8
417.515	691.4
417.923	677.8
418.33	699
418.715	694.2
419.123	682.6
419.53	683
419.937	697.4
420.345	697.8
420.752	674.6
421.16	702.2
421.546	686.6
421.953	696
422.361	674.4
422.769	691.2
423.177	672.4
423.585	722.2
423.992	712.6
424.379	696
424.787	695.6
425.195	706.2
425.603	681.8
426.011	691
426.419	703.6
426.806	686.4
427.214	688.2
427.623	689.2
428.031	710.4
428.44	688.8
428.848	693.4
429.235	700.4
429.644	694.4
430.053	688.4
430.461	702.8
430.87	718.6
431.279	705.4
431.666	676.2
432.075	687.8
432.484	685.4
432.893	686.6
433.302	715.6
433.711	741.8
434.099	698.2
434.508	680.6
434.918	677
435.327	694.6
435.737	687.8
436.125	677.2
436.534	695.2
436.944	690.6
437.353	689.2
437.763	716
438.173	676.2
438.561	694
438.971	670
439.381	691.4
439.791	683
440.201	658.4
440.589	684.4
440.999	699.8
441.409	682.4
441.819	675.4
442.23	690.6
442.619	689.4
443.029	690
443.439	691
443.85	696
444.26	695.4
444.649	690.6
445.06	679.6
445.471	675.6
445.881	680.4
446.292	696.6
446.682	709.2
447.092	667.8
447.503	747.6
447.914	683
448.325	681
448.715	683.8
449.126	673.6
449.537	674
449.948	679
450.338	680
450.75	691.6
451.161	688.2
451.572	689.2
451.984	680
452.374	661.4
452.786	682.6
453.197	688.6
453.609	689.8
453.999	664.6
454.411	672.4
454.823	692
455.235	682.4
455.647	683.4
456.037	676.2
456.449	666.6
456.862	678.6
457.274	683
457.665	662.6
458.077	680
458.489	717
458.902	681
459.293	680.8
459.705	680
460.118	657.8
460.53	678.2
460.921	680.4
461.334	685.2
461.747	684.2
462.16	691.8
462.551	705.6
462.964	688.6
463.377	666
463.79	672.4
464.182	697.2
464.595	671.6
465.008	681.6
465.421	685.6
465.813	665.4
466.226	689.2
466.64	674
467.053	726
467.445	698.4
467.859	690.8
468.272	676.8
468.686	687.6
469.078	685.2
469.492	668.6
469.906	672.8
470.298	679.4
470.712	668
471.126	733
471.54	661.2
471.933	669.8
472.347	677.2
472.761	663.8
473.175	662
473.568	677.6
473.982	672.2
474.397	675
474.79	669.6
475.204	681.2
475.619	671.2
476.033	676.2
476.426	672.6
476.841	673.4
477.256	697.2
477.649	661.4
478.064	665
478.479	659.8
478.872	664.2
479.287	654.8
479.702	670.8
480.118	666
480.511	674.8
480.927	670.8
481.342	670.4
481.736	671.4
482.151	674
482.566	691.2
482.96	672
483.376	682.6
483.792	674.8
484.186	680.4
484.602	669.8
485.017	674.8
485.412	672
485.827	672.4
486.243	675.4
486.638	708.2
487.054	686.6
487.47	684.6
487.865	667.2
488.281	670.4
488.697	674
489.092	673
489.508	661.8
489.925	689.2
490.32	666.4
490.736	685.8
491.153	669.2
491.548	677.2
491.964	674.8
492.381	661.2
492.776	672
493.193	672
493.61	673.2
494.006	670
494.422	679.8
494.84	661.2
495.235	684.8
495.652	676.6
496.069	673
496.465	658.8
496.883	668.6
497.3	700.2
497.696	655.4
498.113	674.2
498.509	658.4
498.927	661.6
499.344	674.2
499.741	669.8
500.158	677.4
500.576	688.8
500.973	676.2
501.39	660.6
501.787	660.2
502.205	676.2
502.623	662.6
503.02	669.2
503.438	670.4
503.856	668.4
504.253	678.4
504.671	682
505.068	667.2
505.486	678.2
505.905	699.4
506.302	668
506.72	676.8
507.118	663.6
507.536	672
507.955	662.4
508.352	680
508.771	681.4
509.169	675
509.587	660.2
510.006	669.2
510.404	654.2
510.823	661
511.221	666.6
511.64	668.2
512.038	687.4
512.457	666.4
512.877	675.4
513.275	671.8
513.694	673.2
514.092	668
514.512	679.2
514.91	663.6
515.33	672
515.749	675.4
516.148	686.4
516.568	683.2
516.966	667.4
517.386	663.2
517.785	661.4
518.205	668
518.603	656.8
519.024	658.2
519.444	671.4
519.843	687.8
520.263	683
520.662	669
521.082	671.6
521.481	676.4
521.902	670.4
522.301	669.8
522.722	685.2
523.121	670.2
523.542	668.8
523.963	671
524.362	666.2
524.783	673.4
525.183	671.8
525.604	667.6
526.003	656
526.425	668.2
526.824	675.6
527.246	679.6
527.646	679.2
528.067	671.2
528.467	680
528.888	681
529.289	672.6
529.71	664.8
530.11	662.6
530.532	668.2
530.932	662.8
531.354	654.8
531.755	711.4
532.176	679.2
532.577	667.8
532.999	665
533.4	660.8
533.822	682.4
534.223	669.2
534.645	661.8
535.046	666
535.468	667.6
535.869	688.2
536.292	655.2
536.693	711.6
537.115	672
537.516	664
537.939	673.8
538.34	691.4
538.742	685.2
539.165	672
539.566	670.4
539.989	668
540.391	660
540.814	671.4
541.216	672.4
541.639	666.6
542.041	682.2
542.464	673.4
542.866	666.2
543.268	657.4
543.691	678.2
544.093	677.8
544.517	699.2
544.919	659.2
545.343	696
545.745	655
546.147	671.4
546.571	669.2
546.974	662.6
547.398	670.4
547.8	688
548.224	661.8
548.627	663.2
549.03	677.4
549.454	653.4
549.857	649.4
550.281	659
550.684	661.6
551.087	680.2
551.512	673
551.915	676.2
552.34	668.8
552.743	665
553.146	671.4
553.571	660.6
553.975	690
554.399	660.8
554.803	739.6
555.207	673.4
555.632	656
556.036	676.4
556.461	664.4
556.865	666.2
557.268	670.2
557.694	668.4
558.098	673.2
558.502	673.6
558.927	661.8
559.332	667.8
559.736	664
560.162	668.4
560.566	657.8
560.992	678.2
561.396	665.8
561.801	670
562.227	664.8
562.631	661.6
563.036	669.4
563.462	668.6
563.867	664.8
564.272	651.4
564.698	669.6
565.103	660.8
565.508	684
565.935	664.6
566.34	665
566.745	679.6
567.172	665
567.577	686.2
567.982	676.4
568.409	673.2
568.815	661.8
569.22	663
569.626	676.4
570.053	662.4
570.459	668.8
570.865	674
571.292	672.2
571.698	667
572.104	650.2
572.531	658.2
572.937	678
573.343	664.4
573.75	662.6
574.177	675.8
574.583	676
574.99	666
575.396	677.2
575.824	665
576.231	674.8
576.637	667.4
577.065	692.2
577.472	653.8
577.879	662.2
578.286	680
578.714	659
579.121	657.8
579.528	672
579.935	676.4
580.364	657
580.771	649.8
581.178	664.2
581.585	680.2
582.014	671.6
582.421	652.2
582.829	652.6
583.236	677.2
583.644	647.8
584.073	666.6
584.481	658.2
584.889	657.2
585.296	677.6
585.726	670.2
586.134	661.8
586.542	656
586.95	686.4
587.358	649.2
587.787	669.4
588.196	658
588.604	660
589.012	666.8
589.421	653.8
589.851	658.8
590.259	676.6
590.668	663.2
591.076	708
591.485	660.4
591.894	667.2
592.324	686.8
592.733	677
593.142	649.6
593.551	660.2
593.96	710.8
594.369	650.6
594.8	647.6
595.209	664.4
595.618	646.4
596.028	659.8
596.437	651.6
596.847	665.6
597.256	663
597.687	672.4
598.097	666.8
598.507	658.6
598.917	672.8
599.327	675.4
599.736	674.2
600.146	676.4
600.556	664.6
600.988	678
601.398	660.8
601.808	679
602.219	655
602.629	667
603.039	673.6
603.45	699.4
603.86	665.4
604.271	684
604.703	671.4
605.114	659.8
605.525	667
605.935	675
606.346	691.2
606.757	677.6
607.168	658.2
607.579	659.8
607.99	676.4
608.402	666.4
608.813	674
609.224	666.4
609.636	659.2
610.047	651.6
610.48	670.8
610.892	675
611.303	672.8
611.715	658
612.127	659.2
612.539	661.8
612.95	670.2
613.362	646.2
613.774	649.6
614.186	656.6
614.599	654.8
615.011	672.6
615.423	653.8
615.835	655.6
616.248	652.2
616.66	676.2
617.073	662.4
617.485	667.2
617.898	672
618.311	667.4
618.723	666.2
619.136	696.4
619.549	688.2
619.962	692
620.375	665.4
620.788	673.4
621.201	658.8
621.614	667.8
622.028	661.4
622.441	676.8
622.854	683.2
623.268	668
623.681	663
624.095	664.4
624.509	666.2
624.922	662.6
625.336	652.2
625.728	670.6
626.142	678.2
626.556	687.6
626.97	667.4
627.384	662.8
627.799	663.4
628.213	676.6
628.627	669.4
629.041	654.6
629.456	666.6
629.87	656.8
630.285	674
630.699	679
631.093	660.4
631.507	668.2
631.922	670.8
632.337	680.6
632.752	659.4
633.167	667.6
633.582	661
633.997	653
634.412	660.2
634.806	668.4
635.221	654.2
635.637	670
636.052	645.4
636.468	658.4
636.883	674.2
637.299	661.2
637.715	653.2
638.109	655.2
638.525	647.6
638.941	676.8
639.357	670.6
639.773	683.6
640.189	655.8
640.584	671.8
641	669.6
641.416	654.6
641.832	661.6
642.249	661.6
642.665	660.4
643.06	670.6
643.477	676.6
643.894	650
644.31	661.8
644.727	666.2
645.123	667.8
645.54	647.2
645.957	674.6
646.374	680.4
646.77	665.6
647.187	703
647.604	667.8
648.021	645.4
648.439	647.8
648.835	659.8
649.252	661.8
649.67	665.4
650.088	656.8
650.484	668.8
650.902	673.6
651.32	669.6
651.738	666.4
652.134	663.4
652.552	690.8
652.971	670.8
653.389	657.4
653.786	671
654.204	682.2
654.622	656.8
655.019	668
655.438	675.6
655.857	669.2
656.275	668.6
656.673	661.4
657.091	739.8
657.51	658.2
657.908	678.6
658.327	678.2
658.746	656.2
659.144	652.4
659.563	686.6
659.982	673.6
660.38	653.2
660.8	667.2
661.219	668.6
661.617	670
662.037	661.6
662.457	676
662.855	652.2
663.275	708.8
663.695	662.2
664.094	657.2
664.514	669
664.934	657
665.333	671.6
665.753	661
666.152	646.6
666.572	653.2
666.993	672.6
667.392	652.4
667.812	659.8
668.212	658.6
668.632	677.4
669.053	650.6
669.453	672.4
669.874	671.2
670.273	661
670.694	663.4
671.116	678.4
671.515	676.8
671.937	663.8
672.337	663
672.758	654.2
673.158	678.4
673.58	647.2
673.98	671.2
674.402	683.6
674.824	657.6
675.224	650.8
675.646	653.6
676.047	659
676.469	665.6
676.869	668.2
677.292	662.6
677.693	656
678.115	659
678.516	659.2
678.939	663.2
679.34	657.8
679.762	678.6
680.164	656.6
680.586	659.2
680.988	657.6
681.411	692.6
681.812	656.8
682.236	651.6
682.637	647.8
683.061	652
683.462	656.6
683.864	647.2
684.288	669.6
684.69	649.4
685.114	671.2
685.516	666.4
685.94	653.8
686.342	670.2
686.766	657.8
687.168	654.6
687.571	684.8
687.995	663.4
688.398	648.8
688.822	655.6
689.225	688.6
689.628	678.6
690.052	659
690.456	676
690.88	667.6
691.284	658.2
691.687	666.6
692.112	658.2
692.515	649.6
692.919	663
693.344	661.8
693.747	662.4
694.173	663
694.577	675.8
694.98	665
695.406	662.8
695.81	662.8
696.214	664.8
696.64	664.4
697.044	670.6
697.448	671.8
697.874	660.2
698.279	661.2
698.684	647.8
699.11	644.4
699.514	662.8
699.919	657.2
700.324	652
700.75	663.6
701.156	656.6
701.561	678.8
701.987	654
702.393	669.2
702.798	679.2
703.203	672
703.63	657
704.036	650.6
704.442	661.4
704.847	654.4
705.274	660
705.68	656.4
706.086	670.2
706.492	654.2
706.92	660.4
707.326	674.8
707.732	660
708.139	649
708.545	655.4
708.973	654.8
709.38	657.4
709.786	650.6
710.193	677.8
710.6	659.8
711.028	649
711.435	656.4
711.842	655.8
712.249	654.8
712.656	649.4
713.064	671.6
713.492	650.2
713.9	659.6
714.307	666.6
714.715	662.4
715.123	661.6
715.53	664.6
715.938	672
716.367	661.2
716.775	654.2
717.184	641.8
717.592	648.8
718	671.6
718.408	701
718.816	708.2
719.225	657
719.633	663.8
720.042	649.2
720.472	651.6
720.881	684
721.29	661.6
721.699	652.4
722.108	666.6
722.517	663.8
722.926	657
723.335	669.6
723.744	660.8
724.154	666.4
724.563	653.6
724.973	669.6
725.382	663
725.792	655.8
726.202	653
726.612	683.6
727.022	654.4
727.432	654.8
779.813	654
780.223	712
780.634	649.6
781.044	645.8
781.454	663.8
781.865	674.6
782.276	641.2
782.686	674.2
783.097	666
783.508	657
783.919	655.6
784.33	669.8
784.741	667.8
785.152	649.8
785.563	639.6
785.974	651.8
786.386	667.6
786.776	656.2
787.188	660.8
787.599	641.8
788.011	664.2
788.423	658.4
788.835	649
789.247	644
789.659	653.2
790.071	650
790.483	703.6
790.874	653.2
791.286	670.2
791.699	652
792.111	660.4
792.524	659
792.937	651.8
793.349	652
793.741	652.6
794.154	656.6
794.567	683.2
794.98	655.4
795.393	649.6
795.785	678
796.198	655.8
796.612	660
797.026	650
797.439	637.8
797.831	661.6
798.245	646.8
798.659	654.2
799.073	658.2
799.487	650
799.88	658.8
800.294	653.6
800.708	666.2
801.123	662.8
801.516	680.8
801.93	647.4
802.345	647.8
802.76	656
803.153	676
803.568	680
803.983	665.6
804.377	660.4
804.792	646.6
805.207	650.2
805.601	659.4
806.016	693.6
806.432	645
806.826	685.8
807.242	674.8
807.658	656.2
808.052	659.6
808.468	652.8
808.884	662.8
809.279	666.4
809.695	690.4
810.111	685.6
810.506	661.2
810.922	677.2
811.339	656.2
811.734	668.4
812.151	656.4
812.546	651.4
812.963	648.8
813.38	670
813.776	653.4
814.193	681.4
814.589	652.4
815.006	655.2
815.402	654.6
815.82	646.6
816.237	656.2
816.633	660
817.051	649.8
817.448	669
817.866	643.6
818.262	683.4
818.68	646
819.077	645.8
819.495	658.4
819.892	696.4
820.311	653
820.708	650
821.127	654.2
821.524	667.4
821.943	660.6
822.34	679.4
822.759	657.4
823.157	659.8
823.576	670.8
823.974	664.2
824.393	781.2
824.791	657.4
825.189	647.4
825.609	651.6
826.007	660.6
826.427	643.8
826.826	656
827.246	662.2
827.644	641.4
828.043	675.6
828.463	655.4
828.862	662.8
829.261	671.4
829.682	638.8
830.081	655.4
830.502	649.8
830.901	659.6
831.301	648.2
831.722	648.8
832.121	658.8
832.521	647.6
832.943	652.2
833.342	658.4
833.742	658.2
834.164	655
834.564	639.2
834.965	648.8
835.386	660.2
835.787	654
836.188	657.2
836.588	660
837.01	657
837.411	643.4
837.812	667.2
838.213	655.6
838.636	645.8
839.037	730
839.438	655.6
839.84	644.2
840.263	661.8
840.664	671
841.066	658.4
841.468	651.6
841.891	649.2
842.293	664
842.695	666.6
843.098	667.2
843.5	657.6
843.902	665.8
844.326	663.4
844.729	658.8
845.131	673.4
845.534	665.2
845.937	674
846.34	677.4
846.764	658.6
847.167	658.4
847.571	655.8
847.974	660.4
848.377	659
848.781	706.6
849.184	663
849.588	652.4
849.992	647.4
850.396	657.2
850.821	680.6
851.225	659.6
851.63	658.2
852.034	681.2
852.438	665.4
852.843	699
853.247	647.8
853.652	656.4
854.057	677.4
854.462	657.6
854.867	656.4
855.272	691.4
855.677	659.4
856.082	648.8
