#lambda/nm	DC	C1
208.295	570.6	570
208.67	509.8	505
209.045	474.6	470
209.419	468	465.2
209.794	677.6	677
210.169	660.8	662.4
210.544	813.6	809.4
210.919	715.8	713
211.295	697.6	685.8
211.67	705.8	695.2
212.045	714.2	702.2
212.421	697.4	696.6
212.796	738.8	742.6
213.172	699.6	703.2
213.547	702.8	698.6
213.923	711	705
214.299	705.4	705.6
214.675	706.2	713.4
215.051	711.2	711.4
215.427	724.8	723.8
215.803	732.6	729.8
216.179	722.6	725.6
216.555	703.8	719
216.932	728.8	728.8
217.308	725.8	730.4
217.684	715.8	724
218.061	717	730.4
218.438	729	730.2
218.814	721.8	731.8
219.191	742.6	733.8
219.568	725.6	732.4
219.945	739.2	731.8
220.322	740	740.4
220.699	749	741.8
221.076	741.6	743.4
221.453	749.2	740.4
221.83	743	737.6
222.208	738.2	739.6
222.585	742.2	744.2
222.962	745.2	756.6
223.34	748.6	754
223.717	747.8	747.8
224.095	753.2	747.8
224.473	755.4	754
224.851	749.8	749.4
225.229	746	754.4
225.607	780.8	781.6
225.985	746.8	758
226.363	764.2	771
226.741	760.4	763.8
227.119	760.4	760.4
227.497	786.2	789
227.876	757	764
228.254	776	785.6
228.633	773.4	779.8
229.011	772.6	771.6
229.39	784.6	784.4
229.769	780	781.2
230.148	784.2	795.8
230.527	797	807.4
230.905	787.8	782.6
231.284	789.2	786.8
231.664	797	779.8
232.043	809	816.2
232.422	806.4	803.8
232.801	804.2	793.2
233.181	812.2	817.8
233.56	803	805
233.94	818.6	808
234.319	808.2	803.6
234.699	816.4	815.8
235.079	875.6	856.4
235.458	870.6	876.6
235.838	844.4	845.8
236.218	835.4	830.8
236.598	820	814
236.978	833.8	835.6
237.358	834.6	834
237.738	842.6	836
238.119	848.8	868.6
238.499	839.2	846.2
238.88	860.2	846.2
239.26	877	870.4
239.641	848.6	855.4
240.021	857.2	858
240.402	865.6	865.2
240.783	859.8	869.6
241.163	872.2	865.8
241.544	869.6	866
241.925	875	868.4
242.306	886.6	880.4
242.687	866	855.8
243.069	858.8	869
243.45	871.2	876
243.831	862.6	858.8
244.212	855.4	861.2
244.594	885.4	902.8
244.975	857.2	868.4
245.357	854.6	852
245.739	840	846.4
246.12	844.4	847.6
246.502	854.2	851.6
246.884	837.8	826.8
247.266	817.6	821.8
247.648	832.4	826.6
248.03	831	827.8
248.412	804.2	808.4
248.794	804	799.6
249.176	797.6	789.2
249.559	790.2	801.6
249.941	779.4	783.6
250.323	767	770.8
250.706	760	771.6
251.089	767.2	766.6
251.471	765.2	772.6
251.854	772.6	761
252.237	755.8	755.2
252.62	751.2	757.2
253.002	753.2	749
253.385	741.8	747
253.769	749.6	760
254.152	743.6	741
254.535	747.8	744.6
254.918	723.6	729
255.301	726.8	728.6
255.685	721	726
256.068	720	713
256.452	742.6	753.4
256.835	740.6	727.4
257.219	725.4	733.2
257.603	728.6	732
257.986	707.4	708
258.37	727.2	724.4
258.754	707.4	705.4
259.138	722	723.8
259.522	725.6	732.2
259.906	711.2	712.4
260.29	727	714.2
260.675	717	714.2
261.059	716.4	719.6
261.443	704.2	709.4
261.828	722	721.8
262.212	720	725.8
262.597	701.4	698
262.981	699.4	697.2
263.366	718.8	728
263.751	722.8	717.4
264.136	715.6	705.6
264.521	721.4	710.8
264.906	705.2	702
265.291	727.2	725
265.676	711	706
266.061	725.2	718.4
266.446	731.2	727.8
266.831	711.8	711.4
267.217	736.2	725.2
267.602	719.4	713.6
267.987	720.4	716
268.373	715	707.2
268.759	723.2	723
269.144	724.8	723.4
269.53	719	711.2
269.916	710.2	706.2
270.302	714.8	711.4
270.688	724.8	727.6
271.074	715.2	722.4
271.46	726.8	727.2
271.846	743.6	748
272.232	718	720.6
272.618	709.4	713
273.004	722.4	714.2
273.391	728.6	725.2
273.777	727	729.2
274.164	724.4	725
274.55	726.6	733.6
274.937	716.2	715.2
275.324	713	704.2
275.71	719.8	714
276.097	724	724.4
276.484	716.2	712.8
276.871	717.8	711.8
277.258	721	719
277.645	698.2	706.6
278.032	715.4	718.6
278.419	708.4	705.6
278.807	728.2	715.8
279.194	701.4	713.6
279.581	707.4	704.8
279.969	721	719.2
280.356	723	727
280.744	716	714.8
281.131	736	750.6
281.519	727.8	727.4
281.907	716.8	701.2
282.295	715.4	716.6
282.682	727.8	718.6
283.07	713.2	726.4
283.458	722.2	724
283.846	725.4	733.8
284.235	729.4	737.2
284.623	731.2	726.4
285.011	711.8	704.4
285.399	723.2	715.4
285.788	715.4	712
286.176	703.6	698
286.565	729	730
286.953	714.8	710.2
287.342	721.8	710.6
287.731	714.6	708.2
288.119	701.6	707
288.508	708.2	709.6
288.897	709.6	721.8
289.286	701.8	706.4
289.675	716.8	720.8
290.064	724	734.2
290.453	713	717.4
290.821	723.4	711.4
291.21	730.8	731.2
291.599	713.6	710.2
291.989	718.4	724.4
292.378	720.2	721.8
292.768	734.4	737
293.157	723.8	721.4
293.547	727	725
293.936	708.2	719
294.326	716	708.2
294.716	715.2	721.2
295.106	710.2	714.8
295.496	727.6	726.8
295.886	727.4	724.2
296.276	719.2	710.6
296.666	711.6	707.2
297.056	717.6	717
297.446	713.2	708.2
297.836	736	739.4
298.227	713.2	714
298.617	723.6	721.2
299.008	727	732.6
299.398	714.6	713.8
299.789	714.6	711.6
300.179	720.2	718.6
300.57	733.6	730.2
300.961	715	719.2
301.352	706.2	712.4
301.742	725.2	724.6
302.133	717.2	717
302.524	725	707.8
302.915	720	718.4
303.307	717.8	712
303.698	721.6	729
304.089	721.6	730.6
304.48	718.2	722.8
304.872	723.8	722.6
305.263	721	725.4
305.655	711.6	717.4
306.046	731.2	727.6
306.438	724	726.2
306.829	723.2	720.2
307.221	734.8	743.6
307.613	722.6	725.6
308.005	731	737
308.397	726.6	731.2
308.789	740	741.8
309.181	741	747.8
309.573	735.8	734
309.965	734.4	736.2
310.357	722.8	724.2
310.749	736.8	736.2
311.142	718.6	710.8
311.534	713.8	706.6
311.926	725	721.8
312.319	738	723
312.711	716.6	716
313.104	738.4	744.2
313.497	734.8	729.4
313.889	783.8	774.2
314.282	759.4	749.4
314.675	779.6	775.2
315.068	765	776
315.461	790.4	785.6
315.854	840.2	836.4
316.247	837.8	817
316.64	839	832.2
317.033	838.8	833.8
317.405	856.8	862
317.798	848.2	841.8
318.192	849	854.4
318.585	834.2	827.4
318.979	824	831.4
319.372	793.8	794.2
319.766	792.2	786.4
320.16	778.2	784.8
320.553	783.4	789
320.947	786.4	780.8
321.341	755.6	754.2
321.735	767.2	762.4
322.129	734.2	756.6
322.523	784.4	787.2
322.917	755.2	757.6
323.311	779.8	772.4
323.705	774.2	771.6
324.099	775.8	766.6
324.494	782.2	792.2
324.888	790.8	772.8
325.282	781.6	773
325.677	786	784.8
326.071	780.2	781.2
326.466	784.8	794.2
326.861	779.4	782
327.255	797.2	783.6
327.65	802.4	797
328.045	801.6	805
328.44	793.6	792.2
328.835	793.8	796.6
329.23	787.8	782.6
329.625	815	812.6
330.02	797.2	792
330.415	819.6	815
330.81	798.2	802.8
331.206	809	801
331.601	789.8	788.8
331.996	811	796.4
332.37	812.2	824.6
332.766	794.4	789.6
333.161	827.8	833.2
333.557	810	804.8
333.953	806.8	806.2
334.348	1206.8	1160.8
334.744	823.4	824
335.14	816.2	811.2
335.536	821.4	820.6
335.932	843.6	835.6
336.328	838	836.2
336.724	854.8	852.2
337.12	863	857.6
337.516	869	871
337.913	864	875.2
338.309	886.8	892.8
338.705	885	875.4
339.102	888.4	894.4
339.498	885.4	875.4
339.895	896.6	895.2
340.291	869.6	874.8
340.688	874.2	869.6
341.085	847.4	859.8
341.481	854.8	855.2
341.878	856.6	854.6
342.275	874.8	879.8
342.672	847.8	853.6
343.069	844.2	855.6
343.466	848	849
343.842	866.8	879
344.239	854.4	849.2
344.636	866	863.6
345.033	860	854.4
345.431	857.2	865.6
345.828	871.2	862.4
346.225	857.8	866
346.623	896.4	906.6
347.02	875.2	871.6
347.418	884.6	883.6
347.816	894.4	902.2
348.213	877.8	862.8
348.611	882.4	878.2
349.009	878	878
349.407	883.2	881.4
349.805	863.4	867.6
350.203	878.2	859.8
350.601	892.8	894
350.999	862	880
351.397	921.2	931
351.795	876.6	872.2
352.193	883.8	890.4
352.57	883.6	881.8
352.969	875.8	897.6
353.367	863.6	858.6
353.766	864.8	863.2
354.164	865.6	867.4
354.563	884.8	882.6
354.961	858.8	873
355.36	869.4	866.2
355.759	854	858.6
356.158	852.4	854.8
356.557	850.6	860.4
356.956	856.2	859.8
357.355	859	837.8
357.754	873.2	855.4
358.153	859.8	860.4
358.552	879	873.2
358.951	855	850
359.35	858.8	867.6
359.75	846.8	850.6
360.149	831.6	848.4
360.527	827	844.4
360.926	828.8	832
361.326	836	843.6
361.726	840.2	847.4
362.125	840	835
362.525	834.4	842
362.925	825.8	831
363.325	840	839.2
363.724	822.6	833
364.124	836.8	828.6
364.524	829	830.6
364.924	832.2	838.6
365.324	862.8	857.8
365.725	855.6	866
366.125	927.2	938.4
366.525	1039.6	1045
366.904	1230.2	1213.6
367.304	1481.2	1477.8
367.705	1802.2	1806
368.105	2101.8	2071
368.506	2332.2	2318.2
368.906	2549.6	2525.6
369.307	2653.4	2671.4
369.708	2732.4	2733.4
370.108	2721.2	2695.2
370.509	2649.6	2636.6
370.91	2382.6	2359.4
371.311	2090.2	2076.4
371.712	1774.2	1786.8
372.113	1485.6	1508.8
372.514	1240.4	1250.6
372.894	1093.4	1092.2
373.295	993	972
373.696	924.4	915.2
374.097	876.6	873.6
374.499	864.6	864.2
374.9	818	831.4
375.301	801	818.2
375.703	825.4	814
376.105	803.4	794.6
376.506	814.8	817.2
376.908	809.8	804.2
377.309	803.4	806.8
377.711	802	801.4
378.113	801.4	798.2
378.493	797	810.4
378.895	802.6	800.8
379.297	825	825.4
379.699	809.2	797
380.102	819.6	813.8
380.504	829.6	818.6
380.906	830.2	821.8
381.308	859	860
381.71	840.4	841.2
382.113	856.2	862.8
382.515	860	856.6
382.918	860.8	858.6
383.299	862.4	867
383.701	884.2	881
384.104	878.8	872
384.507	864.2	854.6
384.909	878.6	879.6
385.312	869	866
385.715	861.4	870.6
386.118	872.6	871.6
386.521	860.2	870.4
386.924	880.2	881.8
387.327	866.6	864.2
387.709	851.4	860.4
388.112	846.6	840
388.515	850.8	857
388.918	844.8	850.2
389.322	854.6	849.8
389.725	835.2	853.4
390.129	857	869.8
390.532	851.8	850.6
390.936	835.4	845.2
391.339	820.6	837.4
391.743	843	849
392.125	846.2	837.6
392.529	856.8	856.4
392.933	869.6	874.6
393.337	842.8	863
393.74	854.4	865.2
394.144	863.8	873.2
394.548	858.8	865.2
394.953	869.4	871.2
395.357	883.8	873.6
395.761	874.4	868.6
396.144	877.4	885
396.548	886.4	877.6
396.952	872.6	884
397.357	876.8	883.6
397.761	875.4	881.8
398.166	885.2	886
398.57	895.4	887.4
398.975	902	899.6
399.379	901	911.6
399.763	947.6	970.8
400.168	909.2	920.6
400.572	920.2	931.2
400.977	931	944.6
401.382	974.4	971.2
401.787	969.8	981.4
402.192	993.2	996
402.597	1020	1015.2
403.002	992.6	1001.8
403.386	1042.2	1050
403.791	1078.4	1086.4
404.197	1108.4	1117.8
404.602	1227.4	1253.6
405.007	1482.4	1481
405.413	1921	1923.4
405.818	2921.2	2938
406.224	4688.2	4722.4
406.608	7074.4	7144.4
407.014	9529.8	9589
407.42	11743.2	11832.8
407.825	13710.2	13791
408.231	15305.8	15416.8
408.637	16424.8	16568.2
409.043	17074.4	17184.2
409.449	17193.6	17286.8
409.834	16400.2	16543.2
410.24	14492	14576.8
410.646	12118.6	12235.8
411.052	9939.6	10022
411.458	8019.4	8083.8
411.865	6494.6	6536
412.271	5345.2	5370
412.677	4513.8	4534.6
413.062	3879.4	3916.4
413.469	3390.4	3415.6
413.875	3050.4	3106.4
414.282	2834.6	2844
414.689	2658.8	2693.4
415.095	2595.6	2589
415.502	2557	2545.2
415.888	2567	2573.6
416.294	2612.4	2619
416.701	2718.4	2715.6
417.108	2773.4	2738.8
417.515	2865.2	2875.4
417.923	2945.8	2943.8
418.33	3089	3075.8
418.715	3161.2	3151.8
419.123	3252.8	3244
419.53	3339	3332.8
419.937	3445.2	3439
420.345	3527.6	3553.2
420.752	3645.6	3602
421.16	3745	3747.8
421.546	3804.2	3798
421.953	3902.2	3885.4
422.361	3978	3977.8
422.769	4081.6	4103.6
423.177	4223.8	4209
423.585	4325.2	4346.8
423.992	4438.8	4411.2
424.379	4521.8	4500
424.787	4626.4	4605.6
425.195	4760	4729
425.603	4889.6	4890.6
426.011	5018.4	4982.6
426.419	5151.6	5116.4
426.806	5257.2	5294.6
427.214	5410	5403.2
427.623	5564.4	5585.4
428.031	5783.8	5743.2
428.44	5922.2	5903.2
428.848	6072.4	6103.2
429.235	6257.8	6265.8
429.644	6460	6470.6
430.053	6664	6620
430.461	6819.4	6840.8
430.87	7023	6996.6
431.279	7181.6	7198
431.666	7322.2	7336.6
432.075	7497.8	7565.2
432.484	7724	7701.4
432.893	7865.4	7915
433.302	8074.4	8109.8
433.711	8285.2	8336.6
434.099	8438.2	8467.6
434.508	8704.6	8717
434.918	8981.6	8994.4
435.327	9495.8	9502.6
435.737	10455.4	10491.8
436.125	12241.4	12256.6
436.534	15728.6	15788.6
436.944	22865.4	22845.6
437.353	33096.4	33222.4
437.763	45005.4	44927.8
438.173	56319.2	56291.6
438.561	64719.6	64778.4
438.971	70997.8	70913
439.381	71180.8	71157.4
439.791	74974.2	74926.8
440.201	73908	73896.6
440.589	74941.2	74917.2
440.999	70339.2	70313.2
441.409	64564.2	64540.4
441.819	53072	53002.4
442.23	42643.2	42730.8
442.619	33868.6	33881.6
443.029	26834.6	26850.6
443.439	21609.4	21733
443.85	18056.6	18121.4
444.26	15547	15599.4
444.649	13903.8	14087
445.06	13207.2	13364.2
445.471	12919.6	13082.8
445.881	12874.8	13022.6
446.292	12981.6	13031.6
446.682	12990	13170.2
447.092	13081.4	13199.6
447.503	13150.8	13298.8
447.914	13165	13332.2
448.325	13199.6	13426.2
448.715	13352.8	13551.8
449.126	13429.8	13511.4
449.537	13494	13666
449.948	13536.6	13765.8
450.338	13603.4	13750.2
450.75	13665.4	13880.2
451.161	13708.4	13890.2
451.572	13760.6	13938.8
451.984	13891.8	13984.8
452.374	13846.6	14025.4
452.786	13921.2	14077
453.197	13941.2	14121.8
453.609	14004.6	14085.6
453.999	13971.4	14190.8
454.411	13953.4	14232
454.823	14088.4	14248.4
455.235	14110	14291.6
455.647	14045.8	14246.4
456.037	14125	14237
456.449	14096.6	14249.4
456.862	14080.2	14264.8
457.274	14106.4	14268.8
457.665	14055	14210.4
458.077	14073.6	14218.8
458.489	14122.2	14208.6
458.902	14045	14206.6
459.293	13990.4	14194.2
459.705	14014.4	14125
460.118	13936.6	14138.2
460.53	13901	14097.4
460.921	13881.4	14043.6
461.334	13814.8	14006.4
461.747	13767	13933.6
462.16	13755	13968.8
462.551	13713.4	13870.6
462.964	13650	13787.4
463.377	13523.2	13731.4
463.79	13495.8	13695
464.182	13436.8	13589.4
464.595	13399.6	13549
465.008	13304.8	13452
465.421	13258.2	13430.4
465.813	13212.8	13367.6
466.226	13130.6	13342
466.64	13087	13297
467.053	13067.4	13315
467.445	13001.8	13164.8
467.859	12934	13147
468.272	12902.6	13090.6
468.686	12856.8	13086
469.078	12788.8	12993
469.492	12724.4	12917
469.906	12720.2	12890
470.298	12670.4	12809.8
470.712	12520.6	12698
471.126	12473.2	12650.6
471.54	12319.4	12551
471.933	12202	12343.6
472.347	12042.8	12190
472.761	11889.6	12127.6
473.175	11836	11975.2
473.568	11657.6	11853.2
473.982	11537.2	11763.6
474.397	11458	11637.4
474.79	11374.2	11541.8
475.204	11271	11498
475.619	11234.6	11369.4
476.033	11134	11356.8
476.426	11075.8	11218.2
476.841	10967	11182.2
477.256	10885.6	11119.8
477.649	10748.4	10991
478.064	10690.8	10878
478.479	10603	10750
478.872	10462	10671.6
479.287	10371.2	10500.2
479.702	10302	10468
480.118	10187.8	10456
480.511	10152.2	10374.8
480.927	10190.8	10373.2
481.342	10175.6	10419.2
481.736	10289	10480.4
482.151	10448.8	10573.4
482.566	10607	10772.2
482.96	10911.4	11082
483.376	11282.6	11490.6
483.792	11797.8	11976.6
484.186	12596.6	12714.2
484.602	13532.4	13625.8
485.017	14753	14895.2
485.412	16189.6	16345.8
485.827	18030.6	18144
486.243	20111.8	20238.6
486.638	22591.4	22780.8
487.054	25412.6	25429.8
487.47	28218	28422.6
487.865	31304.6	31332
488.281	34373.4	34497.4
488.697	37286	37364.8
489.092	40067.2	40131
489.508	42520.2	42525.2
489.925	44517.2	44614.8
490.32	46126.8	46192.2
490.736	47293.4	47331.8
491.153	47978	47942
491.548	48110.6	48156.4
491.964	47969.2	47926
492.381	47355.8	47404.6
492.776	46534	46628.6
493.193	45681.6	45648.2
493.61	44581.2	44452.6
494.006	43427.4	43378.2
494.422	42103.6	42140
494.84	40738.8	40929.8
495.235	39579.6	39585.8
495.652	38192	38123
496.069	36784.6	36801.8
496.465	35431.6	35451
496.883	34055	34119.6
497.3	32733.2	32845.4
497.696	31481.4	31496.8
498.113	30329.6	30361.6
498.509	29173.2	29175.2
498.927	28099.2	28127.4
499.344	26980.6	27088.2
499.741	26062.6	26098.6
500.158	25016.8	25117.6
500.576	23898.4	24053.4
500.973	22914.8	22931.6
501.39	21689	21802.6
501.787	20452.6	20575.4
502.205	19205.2	19281.6
502.623	17929.8	18021.4
503.02	16703.8	16790
503.438	15441	15557.6
503.856	14302.2	14415.2
504.253	13173.8	13308.4
504.671	12148.8	12253.6
505.068	11184.6	11321
505.486	10389.6	10508
505.905	9668.2	9792.4
506.302	8980	9121.2
506.72	8452.6	8571.8
507.118	7952.6	8039
507.536	7525.8	7644.4
507.955	7181.8	7258.6
508.352	6807.2	6968
508.771	6579.2	6744.6
509.169	6335.8	6465
509.587	6151.4	6248.2
510.006	5987.4	6120.6
510.404	5885	5991.8
510.823	5777.2	5876.8
511.221	5672	5779.6
511.64	5600.4	5741.2
512.038	5570.8	5717.4
512.457	5485.6	5619.6
512.877	5486.6	5601.6
513.275	5438.4	5582
513.694	5426.8	5549.6
514.092	5410.4	5502.8
514.512	5375.4	5525
514.91	5356.4	5486.6
515.33	5333.8	5471.6
515.749	5307.6	5458
516.148	5303	5411.4
516.568	5258	5378.4
516.966	5217	5327
517.386	5224.4	5267
517.785	5147	5260
518.205	5085.8	5217.8
518.603	5064.6	5158.8
519.024	5000.8	5107.6
519.444	4962	5084.6
519.843	4915.4	5051
520.263	4937.8	4997.8
520.662	4868.4	4954.2
521.082	4799.2	4906.2
521.481	4754.8	4860.4
521.902	4705.2	4796.4
522.301	4646	4737
522.722	4606.2	4723.4
523.121	4542.6	4683.6
523.542	4538	4614.2
523.963	4506.6	4553.8
524.362	4484.6	4549.2
524.783	4434.4	4490.8
525.183	4382.6	4465.2
525.604	4341.8	4429.6
526.003	4323.4	4421
526.425	4320.8	4363.6
526.824	4318.6	4418
527.246	4320.4	4384.4
527.646	4312.2	4409.4
528.067	4328.6	4420.4
528.467	4365.4	4444.8
528.888	4405	4479.4
529.289	4420	4473.6
529.71	4435.6	4502.6
530.11	4481.6	4536
530.532	4479	4578.4
530.932	4570.8	4623.4
531.354	4577.6	4631
531.755	4687	4774.8
532.176	4744.6	4812.2
532.577	4893.6	4962
532.999	5140.4	5218.2
533.4	5518.8	5572.4
533.822	5979.8	6045.4
534.223	6466.6	6505.2
534.645	6920.2	7044.6
535.046	7477.2	7509
535.468	8018.2	8082.4
535.869	8601.2	8623.4
536.292	9134	9185.4
536.693	9725.8	9850.8
537.115	10313.4	10390.2
537.516	11109.8	11132.4
537.939	12239.2	12306.2
538.34	13757	13768
538.742	15621	15707.2
539.165	18130.8	18220
539.566	21317.4	21347.4
539.989	25334.6	25344.6
540.391	30485.8	30430
540.814	37127	37098
541.216	45798.8	45607.4
541.639	56572.2	56446.4
542.041	69109.2	68976
542.464	76940.4	76575
542.866	77253	77255
543.268	77203	77205.8
543.691	77158.4	77160.8
544.093	77119.6	77122
544.517	77084.2	77086.4
544.919	77052.2	77054.6
545.343	77023.6	77025.2
545.745	76998.2	76999.4
546.147	76974.2	76975.2
546.571	76953	76954.2
546.974	76933.8	76934.2
547.398	76916.6	76917.4
547.8	76900.6	76900.8
548.224	76885.6	76887.8
548.627	76873.6	76873.4
549.03	76861.2	76861.8
549.454	76850.2	76851.2
549.857	76842.6	76842.6
550.281	76833.4	76833.8
550.684	76825.2	76825.6
551.087	76817.4	76818.4
551.512	76811.2	76811.2
551.915	76804.6	76805.2
552.34	76799.2	76799.4
552.743	76794	76794.8
553.146	74660	74548.2
553.571	70072.4	69937.6
553.975	64427.6	64204.4
554.399	59166.4	58963
554.803	54438.6	54251.4
555.207	49884	49648.4
555.632	45412.4	45244.2
556.036	41160.6	40984
556.461	36924.4	36811.6
556.865	32962.4	32896.4
557.268	29284	29229.8
557.694	26112.2	25951
558.098	23205.4	23144
558.502	20726.8	20814
558.927	18766.8	18644.4
559.332	16992.2	16981.4
559.736	15569.6	15558.2
560.162	14420.6	14413.6
560.566	13446.2	13468
560.992	12691.4	12655.8
561.396	12066.4	12098.6
561.801	11556	11554.6
562.227	11153.6	11155.4
562.631	10864.8	10843.4
563.036	10570.4	10604.8
563.462	10358.2	10329.2
563.867	10146	10183.2
564.272	9964.4	10006.6
564.698	9804.6	9809
565.103	9643.8	9652
565.508	9477.4	9511.4
565.935	9352.4	9331.8
566.34	9206.8	9205.6
566.745	9080.8	9071.8
567.172	8950.8	8949.4
567.577	8863.8	8861.4
567.982	8790.6	8758.6
568.409	8696.2	8677.4
568.815	8621.2	8644
569.22	8612.6	8600
569.626	8598.4	8588.4
570.053	8531.4	8523
570.459	8556.4	8552.8
570.865	8489	8527.4
571.292	8543.4	8512.8
571.698	8568.4	8500.4
572.104	8536.4	8543.6
572.531	8587.4	8608
572.937	8670.2	8654.2
573.343	8796.2	8807
573.75	8922.4	8973
574.177	9182.2	9192.4
574.583	9512.8	9452.6
574.99	10112.8	10107.4
575.396	11226.6	11233.4
575.824	12873.2	12919.4
576.231	14750.6	14781.4
576.637	16782	16761
577.065	18979.6	19006
577.472	21635.4	21693.4
577.879	24722	24768.4
578.286	27977	27995.4
578.714	31113.4	31278
579.121	34045.6	34188.4
579.528	36231	36357.8
579.935	38244.8	38384.4
580.364	40305.8	40451.8
580.771	42328.6	42377.2
581.178	44005	44168.4
581.585	45407	45457.4
582.014	46841	46828.2
582.421	48383	48278.6
582.829	49741.4	49734.8
583.236	51224.4	51147.8
583.644	52652.4	52447
584.073	53934.4	53893.2
584.481	55258.6	54926.8
584.889	56314.4	56111
585.296	57587.6	57323.8
585.726	58888.2	58714.4
586.134	60246.6	60141.8
586.542	61464.2	61283
586.95	62691.4	62431.2
587.358	63347.6	62985.2
587.787	64019.8	63680
588.196	64346.2	64072.4
588.604	64509.2	64316.4
589.012	64085.8	63889.4
589.421	62566.6	62282
589.851	60191.6	60044.6
590.259	57794	57631.4
590.668	55604.2	55275.6
591.076	53554.4	53350.2
591.485	52018.2	51804.6
591.894	50775.8	50750.4
592.324	49929.2	49822.4
592.733	49031	48820.4
593.142	48061	47894.2
593.551	47121.6	46952.2
