#lambda/nm	DC	C1
208.295	566.6	569.4
208.67	506.4	506.8
209.045	472.8	468.2
209.419	465.8	468.8
209.794	679.4	674.2
210.169	651.2	649
210.544	786.8	782
210.919	671	678.2
211.295	654.6	666.8
211.67	668.6	669.2
212.045	670.8	666.2
212.421	661.8	655.8
212.796	705.2	706.6
213.172	656.4	672.4
213.547	665.4	662
213.923	662.6	663.6
214.299	662.4	663
214.675	671.8	669.8
215.051	668	673.2
215.427	681.4	677
215.803	699.2	684.8
216.179	673	661.2
216.555	660.2	660.6
216.932	674.4	680.4
217.308	660.2	659.8
217.684	674.4	668
218.061	676	671.8
218.438	671	671.8
218.814	666	663.2
219.191	678.6	677.2
219.568	661.6	658
219.945	656.8	660.8
220.322	667.6	669.4
220.699	675.2	675.8
221.076	674	678.6
221.453	676.2	668
221.83	664.2	659.8
222.208	666.6	659.4
222.585	669.6	663
222.962	673.4	669.8
223.34	674.4	671
223.717	665.6	664.4
224.095	668	662.6
224.473	674.2	666.8
224.851	670.4	663.2
225.229	659.4	658.8
225.607	682.8	682.6
225.985	667	659.8
226.363	663.2	665
226.741	668.4	665.8
227.119	665.2	668.4
227.497	685.6	680.6
227.876	645.2	655.4
228.254	667.8	669.2
228.633	662.8	670.6
229.011	666.6	673.2
229.39	668	656.6
229.769	663.6	668.8
230.148	677.2	679.4
230.527	682.4	686
230.905	657.2	666.6
231.284	662.8	667.6
231.664	666.8	659
232.043	675.2	682.6
232.422	668.6	674
232.801	662	661.6
233.181	665.2	669.8
233.56	659.8	668.6
233.94	666	670.8
234.319	642.8	656.4
234.699	666.8	674.4
235.079	696.6	709.6
235.458	708.4	706
235.838	683.6	680.6
236.218	659.4	654.4
236.598	647	654.4
236.978	663.2	663
237.358	663	664.2
237.738	659.6	662
238.119	676.6	666.8
238.499	652	650.8
238.88	669.8	669.8
239.26	682.4	689.2
239.641	656.8	657.4
240.021	663.4	662.8
240.402	665.8	667.4
240.783	667.2	662.2
241.163	662.2	663.6
241.544	659.6	663.4
241.925	662	663.4
242.306	682.8	679.8
242.687	658	654
243.069	669	667.2
243.45	676.6	673.8
243.831	659.2	656.4
244.212	666.8	658.2
244.594	707.8	703
244.975	683.8	672.8
245.357	670.4	666.2
245.739	667.8	656.8
246.12	675.2	668.2
246.502	684.8	684.8
246.884	668	666.2
247.266	665.4	659
247.648	673.8	666.2
248.03	692.2	694.6
248.412	672	659.8
248.794	667.4	673.4
249.176	674	661.2
249.559	675.8	667.8
249.941	659.4	654.4
250.323	655.8	650.6
250.706	661.4	665.8
251.089	663.4	664.6
251.471	667.2	669.4
251.854	671.6	670.2
252.237	667.2	673.2
252.62	670.6	674.4
253.002	662	672.2
253.385	664	663
253.769	687.8	686
254.152	670.4	665.6
254.535	668.6	675.2
254.918	658.4	661.4
255.301	660.6	668.4
255.685	665.2	660.2
256.068	662.6	655
256.452	697.4	691.2
256.835	676.4	680.8
257.219	674.4	678.6
257.603	688.8	686.4
257.986	657	664
258.37	683.2	669.4
258.754	656.6	658.8
259.138	678.8	679.2
259.522	666	684
259.906	666.2	659
260.29	672.2	674.8
260.675	668.8	664.6
261.059	668	662
261.443	659.2	658
261.828	677.8	678.4
262.212	678.4	665.8
262.597	658.4	658
262.981	667	667.8
263.366	679	680
263.751	660.8	668.6
264.136	664.8	661.4
264.521	663.6	662
264.906	651.2	659.4
265.291	677	673.4
265.676	662.4	659.6
266.061	676.8	675.2
266.446	681.2	686.2
266.831	665	653.2
267.217	687.4	688.2
267.602	674	673.4
267.987	670	673.4
268.373	660	660.4
268.759	668.4	671
269.144	674.2	679.8
269.53	662.4	672
269.916	660.4	667.6
270.302	661.2	666.4
270.688	669.2	672.8
271.074	671.4	668.4
271.46	682	678
271.846	704.2	706
272.232	668.6	671.2
272.618	660	663.4
273.004	667.8	668
273.391	683.6	675.6
273.777	686.4	678.2
274.164	675.4	672.2
274.55	684.8	687
274.937	676.8	676.2
275.324	665.2	667.2
275.71	679.2	676.6
276.097	673.2	674
276.484	663.8	666.2
276.871	675.4	671.8
277.258	673.8	669
277.645	658.8	656.8
278.032	665.2	661.8
278.419	660	662
278.807	672.6	677.2
279.194	661.2	661.6
279.581	667.4	659.6
279.969	674.8	668
280.356	677.4	669.6
280.744	674.2	672.6
281.131	703	694
281.519	681	684.4
281.907	669	665.8
282.295	669.4	663.6
282.682	680.2	685.8
283.07	669.2	670.6
283.458	677.8	680.2
283.846	681.8	676
284.235	674	695.2
284.623	680.6	684.2
285.011	658.6	668
285.399	672	678.2
285.788	667.6	667.2
286.176	649.6	659
286.565	688.6	676.6
286.953	665.8	672.4
287.342	667.6	665.2
287.731	659.8	667.4
288.119	666.4	659.6
288.508	665.4	663
288.897	669.6	676.2
289.286	655.6	657.4
289.675	681.2	669.2
290.064	682.8	683.2
290.453	663	669.8
290.821	670.2	660.2
291.21	682.2	682.8
291.599	662.8	670.6
291.989	669	676.4
292.378	661.2	679
292.768	685	694.2
293.157	675.4	684.2
293.547	675.2	677.4
293.936	669.2	661.6
294.326	683.4	668.4
294.716	672.2	677
295.106	663	670.2
295.496	679	673.6
295.886	681.8	676
296.276	678.2	672.4
296.666	662.4	672.6
297.056	669.6	663.8
297.446	657.4	656.6
297.836	677.4	687.2
298.227	674.8	660
298.617	679	669.4
299.008	679	684.2
299.398	659.8	669.6
299.789	663.8	665.8
300.179	669	677
300.57	685	683.8
300.961	662	666.2
301.352	658.2	666.6
301.742	677	680
302.133	672.6	672.2
302.524	668.8	660
302.915	666.8	668.4
303.307	652.8	663.6
303.698	669.8	682.2
304.089	673	678
304.48	666.4	675
304.872	671.6	676.2
305.263	666	672
305.655	661.2	665.2
306.046	676	676.4
306.438	668	675.8
306.829	672.8	666.4
307.221	687.6	684.2
307.613	666.8	682.8
308.005	678.8	678.6
308.397	688.8	681
308.789	691.8	693.4
309.181	696.2	694
309.573	691.4	698.4
309.965	689	691.8
310.357	671	670.8
310.749	688.2	690.4
311.142	659.8	668.2
311.534	666.2	665
311.926	688.4	678.6
312.319	669	671.4
312.711	670.6	663.4
313.104	687.6	687
313.497	664.6	670.8
313.889	707	712.8
314.282	687.6	684.6
314.675	695.6	694.2
315.068	668.6	678.4
315.461	678.6	682.6
315.854	704	703.6
316.247	677.8	680
316.64	675.4	669
317.033	668.6	680.4
317.405	677.8	680.8
317.798	667.4	671.2
318.192	680.6	672
318.585	667	669.4
318.979	682	681
319.372	668.4	666
319.766	670.8	670.4
320.16	686.4	678
320.553	683.6	691
320.947	693.6	683.6
321.341	659.8	670.4
321.735	674.4	669.4
322.129	657.6	657.2
322.523	696.6	698.6
322.917	671	666.8
323.311	682	682.6
323.705	679.8	678.4
324.099	678	676.6
324.494	688.8	680.2
324.888	695.8	679.2
325.282	677.2	673.4
325.677	685.4	687.8
326.071	676.6	682.8
326.466	675.2	676.4
326.861	675.4	674
327.255	688.6	686.2
327.65	692.2	680
328.045	689.4	692
328.44	674.8	673.2
328.835	672.2	669.6
329.23	667.2	659.4
329.625	695.6	693.8
330.02	669	666.2
330.415	691.2	694
330.81	671.6	672.2
331.206	679.6	676.2
331.601	672.8	666.8
331.996	681.2	678.6
332.37	690.2	695.2
332.766	660.2	662.4
333.161	694.2	696.6
333.557	667	669.2
333.953	670.4	672.6
334.348	1010.6	1007.8
334.744	675.4	673.8
335.14	654.8	665.4
335.536	670.4	672
335.932	678.8	685.8
336.328	660.2	672
336.724	675.6	681.8
337.12	670	680.8
337.516	676	679
337.913	668.6	673.2
338.309	680.8	689.6
338.705	673.2	673.6
339.102	679	677.8
339.498	667.6	671.6
339.895	683.8	683.4
340.291	662.4	667.2
340.688	681.2	681.2
341.085	662.8	661.8
341.481	663.4	670.2
341.878	665.2	668.6
342.275	687.4	687.6
342.672	652.2	656.2
343.069	664.6	666.4
343.466	658.6	652
343.842	676.6	676.4
344.239	662.2	657.8
344.636	671.8	670.6
345.033	658.6	654.4
345.431	655.4	651.8
345.828	671.2	669.4
346.225	654.8	662.2
346.623	704.8	703
347.02	671.8	672
347.418	680.2	675
347.816	691.2	688.8
348.213	664	659
348.611	673.6	671.4
349.009	673	659.4
349.407	687.8	676.6
349.805	659	663.6
350.203	658.2	659.2
350.601	682.8	677.2
350.999	658.2	658
351.397	729.2	731.6
351.795	668.4	669.8
352.193	677.6	673.8
352.57	676.2	669.8
352.969	677.8	678.2
353.367	660	653.6
353.766	656.8	660.6
354.164	676.2	664.4
354.563	684	671.4
354.961	660.2	665
355.36	665.2	655.8
355.759	663.8	664.6
356.158	656.4	661.2
356.557	650.6	663
356.956	655.6	653
357.355	647.6	654.8
357.754	662.8	671.2
358.153	666.4	672.2
358.552	691.4	688.2
358.951	660.2	662.8
359.35	679	678.4
359.75	670.6	662.8
360.149	655	661.4
360.527	650.2	651.6
360.926	656	652.6
361.326	669	659
361.726	660.6	666.4
362.125	655.8	660.6
362.525	679.6	674.4
362.925	667.8	663
363.325	668.8	666.4
363.724	667.6	675.4
364.124	661.8	658.6
364.524	660	645.6
364.924	664.2	674.2
365.324	683.6	674.4
365.725	640.6	644.8
366.125	668.2	674.2
366.525	667.4	663.6
366.904	652.4	661
367.304	651.2	648.4
367.705	678.4	682.8
368.105	677	674.2
368.506	666.4	666.4
368.906	668.4	664.2
369.307	663.6	662
369.708	664.8	676.4
370.108	645.4	659.4
370.509	675	676.8
370.91	662.4	654.4
371.311	660.6	669.4
371.712	661.2	663
372.113	661.4	654.8
372.514	655.2	650.4
372.894	662	661.2
373.295	658.6	661.4
373.696	675.4	675.2
374.097	676.6	670.6
374.499	690.6	695.2
374.9	669.4	664.2
375.301	651	659.4
375.703	666.6	664
376.105	652.4	655
376.506	658.2	664.6
376.908	671.4	667.6
377.309	658.2	663.4
377.711	664.6	665.2
378.113	664	657
378.493	659.4	663
378.895	660	664.8
379.297	675.6	680.8
379.699	652	655.8
380.102	667.4	669.4
380.504	659.4	658.8
380.906	654.4	659.4
381.308	694.2	688.8
381.71	653.8	661
382.113	670.8	675
382.515	661.6	665.2
382.918	673.8	667.6
383.299	655.8	659.6
383.701	663.2	668.6
384.104	677.2	663
384.507	641.2	644
384.909	668.4	660.4
385.312	646.4	652.4
385.715	653	653.8
386.118	659	666.4
386.521	651.8	655.4
386.924	670.2	678
387.327	656.8	662.8
387.709	647	650
388.112	646.2	656.6
388.515	663.2	663.6
388.918	664.8	673
389.322	662.6	679.6
389.725	661	663.6
390.129	685.4	695.6
390.532	670.4	677
390.936	663.8	666.8
391.339	646.2	664.2
391.743	667	668
392.125	651.4	665.6
392.529	676	682.4
392.933	668.2	690.2
393.337	665.4	669.8
393.74	662.8	679.8
394.144	665.2	678.4
394.548	658.8	658.6
394.953	658.2	663.2
395.357	670.8	681.4
395.761	663.2	675.8
396.144	664.4	676.4
396.548	662.4	671.8
396.952	661.6	680.2
397.357	663.6	670.2
397.761	651.8	675.2
398.166	657.2	669.2
398.57	660.2	671.6
398.975	652	653.2
399.379	669.2	676.2
399.763	718.6	717.8
400.168	664	667.4
400.572	658.4	671.2
400.977	655.2	673.6
401.382	687.8	687.8
401.787	677.8	681.2
402.192	677.4	688.6
402.597	676.4	688
403.002	655.6	646.6
403.386	674.2	680
403.791	681.4	687
404.197	660	670.6
404.602	666.6	673.2
405.007	665.6	663.4
405.413	665	665
405.818	660.8	667
406.224	655.4	669.2
406.608	658.2	659.4
407.014	646.4	663.4
407.42	677.6	673.4
407.825	652.2	660.6
408.231	667.8	684.4
408.637	669	670.6
409.043	675.4	685.2
409.449	662.8	667.2
409.834	657.4	663.8
410.24	669.2	663.2
410.646	676.6	683.4
411.052	668.8	669
411.458	671.2	662.4
411.865	669.4	672.4
412.271	675.4	681.2
412.677	659.4	665.2
413.062	665.8	672.4
413.469	653.8	658.2
413.875	693.2	696.2
414.282	682.8	682.6
414.689	662.6	663.4
415.095	677.4	668.2
415.502	666	654.4
415.888	669	670.6
416.294	648	649.2
416.701	709.2	695.2
417.108	655.4	668.2
417.515	674.2	672
417.923	666.6	658
418.33	686.6	690.4
418.715	679	674.6
419.123	662.8	657.6
419.53	662	661
419.937	663	668.6
420.345	681.2	680.2
420.752	662.2	671.4
421.16	685.8	681.6
421.546	666.2	669
421.953	671.4	679.2
422.361	658.6	669.4
422.769	661.8	661
423.177	660	660
423.585	680.4	701.4
423.992	684.2	684.2
424.379	680.6	681.4
424.787	677.2	679.8
425.195	692.8	695
425.603	681.4	674
426.011	681.2	680.2
426.419	679.4	688.8
426.806	667.2	670.4
427.214	668.4	676.4
427.623	672	694
428.031	688	692.8
428.44	668.8	676
428.848	682.8	694.6
429.235	680.8	698.4
429.644	662.8	668.6
430.053	665.8	680
430.461	687.2	698
430.87	695.2	720.2
431.279	678.6	699.4
431.666	663	680
432.075	678.8	692.8
432.484	672.2	709.6
432.893	667.6	697.2
433.302	685.2	728.6
433.711	732.4	756.4
434.099	670.4	723.6
434.508	660.8	720.6
434.918	660.2	716.6
435.327	681.8	743.2
435.737	672.4	735
436.125	663.8	756.4
436.534	668.8	754.6
436.944	669.4	771.4
437.353	673	775.6
437.763	694	793.8
438.173	655.6	772
438.561	679	798
438.971	646.4	782.4
439.381	666	797.8
439.791	670.2	815
440.201	654.4	791.8
440.589	668.6	817
440.999	669.4	830.2
441.409	661.8	821.6
441.819	648	815
442.23	671	837.2
442.619	667.8	847.8
443.029	664.4	838.6
443.439	669.4	844.8
443.85	669.6	867.6
444.26	686.2	883
444.649	666.6	862.8
445.06	660.4	852.4
445.471	659.6	867.4
445.881	669.6	871.6
446.292	679	877.6
446.682	681.6	892.2
447.092	657.6	853.2
447.503	721.4	935.2
447.914	664	879.6
448.325	669.4	871.2
448.715	674.6	882.2
449.126	666.4	886.4
449.537	666.4	888.6
449.948	663.8	881.4
450.338	670	897
450.75	679.6	897
451.161	673.2	905.4
451.572	673.6	903.2
451.984	662.6	895.6
452.374	658.6	880.2
452.786	667.4	896.8
453.197	677	907.8
453.609	680	910.2
453.999	654.6	887.8
454.411	651.2	888.8
454.823	683.4	903.6
455.235	668.6	912.4
455.647	662.6	889
456.037	672.4	900.8
456.449	654.2	873.6
456.862	666.6	894
457.274	669.6	908.4
457.665	656.4	890.8
458.077	667	912.2
458.489	698.8	938.8
458.902	664.2	911
459.293	668.6	914.4
459.705	667.6	909.8
460.118	663.6	906.4
460.53	671.8	912
460.921	662.2	907.2
461.334	667.8	919.2
461.747	666.2	911.4
462.16	672.2	915.4
462.551	681	932.4
462.964	673.2	923.6
463.377	649.6	894.8
463.79	659	910
464.182	666	930.6
464.595	647.8	917
465.008	669.2	914
465.421	668.4	926.2
465.813	654.4	909.8
466.226	678.4	926.6
466.64	661.2	906.4
467.053	715	968.4
467.445	678.2	928.2
467.859	677.8	939
468.272	661.8	929
468.686	672.4	937.2
469.078	659.4	925.6
469.492	656.8	918.2
469.906	664.6	929.2
470.298	668.6	925.4
470.712	652.6	904.6
471.126	707.6	975
471.54	657.4	902.4
471.933	650.6	907.2
472.347	652.2	909
472.761	651.4	925.4
473.175	652.2	916.8
473.568	660	921.4
473.982	649.4	902.8
474.397	659.4	911.2
474.79	659.8	918.4
475.204	663.8	915
475.619	655.2	911
476.033	664.2	912.8
476.426	657.8	914.6
476.841	648.8	894
477.256	677.6	931
477.649	646.8	903.6
478.064	642.2	890.4
478.479	647	908
478.872	651.4	899.2
479.287	650.4	877.6
479.702	645	896
480.118	655.6	892.2
480.511	658.8	905
480.927	657.8	893.4
481.342	651.2	896
481.736	658	899
482.151	650.4	884.4
482.566	662	903
482.96	653.2	896.8
483.376	665.2	904
483.792	651.4	880
484.186	660.8	899
484.602	654.2	885
485.017	663	880.2
485.412	654	885
485.827	665.6	892.8
486.243	656.8	884.8
486.638	685.4	901.8
487.054	658	882.8
487.47	675.2	891.6
487.865	647.6	870.8
488.281	657.6	869
488.697	652.8	873.6
489.092	648.2	871.2
489.508	654.2	869.4
489.925	669.2	891
490.32	644.6	853.4
490.736	662.2	873.8
491.153	660.4	872.8
491.548	661.6	883.2
491.964	666.4	867.4
492.381	642.6	850
492.776	662.8	858
493.193	660.4	859.8
493.61	671.4	864.2
494.006	663.2	866.8
494.422	666	868.6
494.84	643.8	845.6
495.235	665.2	859.8
495.652	658	865.2
496.069	661.4	850.8
496.465	645.6	843.6
496.883	655	842.8
497.3	686.8	875.8
497.696	646	838.4
498.113	662.2	857
498.509	646	834
498.927	644.2	829.4
499.344	644	829.6
499.741	650	829.4
500.158	666.6	852.2
500.576	666.6	854.2
500.973	663	842.4
501.39	644.4	833.2
501.787	646.4	827.2
502.205	663.2	836.8
502.623	647	827.6
503.02	635.4	820.8
503.438	650	820.8
503.856	650	826.6
504.253	668.4	826.6
504.671	656.2	824.2
505.068	655.6	811.8
505.486	657.6	813
505.905	673.4	835.8
506.302	662	809.2
506.72	669.2	829.8
507.118	650.2	807.8
507.536	658.4	814.4
507.955	654.8	802.8
508.352	654.8	809
508.771	656.6	803.6
509.169	663.6	828.6
509.587	642.8	795
510.006	663.4	810.4
510.404	642.8	792.6
510.823	645.4	796.8
511.221	653.6	795.4
511.64	656.6	793.8
512.038	677.2	807.2
512.457	649.2	791.2
512.877	660.8	798.6
513.275	648.6	792.8
513.694	663.2	786.4
514.092	655.6	797.2
514.512	660.2	795.4
514.91	661.8	784
515.33	660.6	793.2
515.749	658.4	779.4
516.148	653	784.2
516.568	660.2	780.8
516.966	654.6	777.8
517.386	654.8	780.8
517.785	656.6	783.6
518.205	643.8	767.8
518.603	656.6	774.6
519.024	646.6	764.6
519.444	650.6	779.6
519.843	661.4	776.6
520.263	661.6	773
520.662	661.8	773.4
521.082	653	764
521.481	660	762
521.902	654.2	760.6
522.301	656.8	769.2
522.722	659.8	763.8
523.121	659.6	766
523.542	646.6	770.2
523.963	652	767
524.362	659.2	773.2
524.783	653.6	767
525.183	658.8	751.6
525.604	658.4	759.8
526.003	651.6	746
526.425	654	738.6
526.824	664.2	760.6
527.246	667.4	760.4
527.646	660	754.6
528.067	660.4	756.2
528.467	656	741
528.888	661	751
529.289	651.6	748.6
529.71	659	743.2
530.11	657.8	749.4
530.532	649.4	747
530.932	649.6	740
531.354	649.2	731.4
531.755	679.4	776.8
532.176	663.8	747.4
532.577	651.8	719.4
532.999	650.2	742
533.4	656	724.6
533.822	668.4	749
534.223	660.2	731.6
534.645	665.2	739.2
535.046	654.2	730.8
535.468	646.8	731.4
535.869	668.6	746.2
536.292	648	718.8
536.693	701.4	761.4
537.115	656.8	740.2
537.516	648	721.8
537.939	667.4	726.2
538.34	674.2	752.8
538.742	669.2	743.6
539.165	654.4	724.8
539.566	654.2	726.8
539.989	648	719.2
540.391	655.2	719.4
540.814	660.4	724
541.216	657.6	727
541.639	652.4	716.6
542.041	668	727.2
542.464	647.4	716.4
542.866	651.2	715.4
543.268	643.2	710.4
543.691	650.8	722.6
544.093	659.2	726.8
544.517	670	740.8
544.919	654.2	704
545.343	675.2	734.4
545.745	647.4	701.8
546.147	659.8	719.2
546.571	656	710.8
546.974	635.6	703
547.398	658.6	715
547.8	669.2	726.8
548.224	653.8	709.2
548.627	651.8	701.4
549.03	655	712
549.454	644.8	691.8
549.857	643.4	695.2
550.281	643.2	700.6
550.684	640	693.4
551.087	659	722.2
551.512	658	708
551.915	655	711.2
552.34	647.6	701.6
552.743	645.6	704.2
553.146	648.2	704.2
553.571	646.6	712.4
553.975	673.4	731.4
554.399	647	688.4
554.803	707.8	742.4
555.207	653.2	695.6
555.632	643.2	685.8
556.036	659.4	700.8
556.461	644.4	678.8
556.865	655	690.8
557.268	647.4	689.4
557.694	649.4	689
558.098	663.2	696.4
558.502	661	699.8
558.927	648.4	685.8
559.332	656	691
559.736	653	686.4
560.162	660.6	706.8
560.566	646.6	688.6
560.992	655.8	692.8
561.396	659.8	689.8
561.801	650	681.6
562.227	662.6	685.8
562.631	649.6	683.2
563.036	652.6	689
563.462	664	693.8
563.867	651.8	689.2
564.272	643	667.2
564.698	648.6	690
565.103	630	683.6
565.508	669	708.4
565.935	657.4	677.8
566.34	648.8	680.8
566.745	660	702.2
567.172	653.4	690
567.577	677.2	708.6
567.982	662.4	690.8
568.409	649.4	689
568.815	639.2	675.4
569.22	651.2	684.4
569.626	658.8	700
570.053	640.4	667.6
570.459	650	692
570.865	662.4	696.4
571.292	662.4	692.8
571.698	658.4	696
572.104	640.6	673.6
572.531	648.8	675.2
572.937	667.6	687.6
573.343	649.8	684
573.75	649.6	679.4
574.177	658	682.4
574.583	657.6	686.6
574.99	648.6	677.2
575.396	653.4	678.8
575.824	647.4	668.8
576.231	647.6	685.8
576.637	643.4	671.8
577.065	675.4	702.4
577.472	645	670.8
577.879	657	677.6
578.286	665.4	691.8
578.714	646.6	667.2
579.121	644.8	673.4
579.528	651.6	671.8
579.935	657.4	678.8
580.364	646.6	671
580.771	639.2	656.2
581.178	649.4	656.8
581.585	650.6	681
582.014	654.4	680.6
582.421	650.4	660.4
582.829	649.4	662.4
583.236	664.6	683
583.644	646.4	669.8
584.073	654	669.8
584.481	650.4	667.6
584.889	655	671
585.296	653.4	669.8
585.726	651.8	669
586.134	636.4	662.8
586.542	648.2	666.2
586.95	668.4	694.4
587.358	650.6	661.8
587.787	660.4	675.6
588.196	645.8	659.6
588.604	653	659.6
589.012	649.4	664.6
589.421	646.4	664.6
589.851	649.4	653.2
590.259	655	676.6
590.668	648.6	675.4
591.076	695.8	707.2
591.485	643.4	663.4
591.894	654	663.8
592.324	669.4	671
592.733	663.2	686.6
593.142	636.2	643.8
593.551	660.4	659
593.96	686.6	698.8
594.369	631.4	649.2
594.8	645.2	663
595.209	649	657.6
595.618	638	652.6
596.028	643	665
596.437	637.4	654.8
596.847	647.6	667.8
597.256	653.4	662.6
597.687	657.8	666.2
598.097	649.8	666.2
598.507	643.2	653.6
598.917	655.4	676.4
599.327	662	668
599.736	658.4	671.6
600.146	666.6	676.8
600.556	657.6	662.4
600.988	664.6	670.8
601.398	649.4	664.6
601.808	669	677.6
602.219	641.8	650.4
602.629	655	660.2
603.039	654.8	662
603.45	680.6	699.4
603.86	656	659.8
604.271	679.8	673.6
604.703	653.4	661
605.114	654.6	656.8
605.525	653.2	663.6
605.935	657.4	671
606.346	679.8	687.6
606.757	661.2	664.6
607.168	651.8	663.4
607.579	643.8	652.6
607.99	668.2	669.8
608.402	647.2	657
608.813	664	670
609.224	650.2	652.4
609.636	643	647.4
610.047	646	650.2
610.48	651.4	658.8
610.892	661.2	672.6
611.303	665.6	671.6
611.715	655.6	657.4
612.127	641.6	646.2
612.539	646.2	652.8
612.95	652.4	664.4
613.362	635.4	657.6
613.774	633.8	645.8
614.186	641	661.6
614.599	638.2	652.2
615.011	660	665.4
615.423	644.8	658.8
615.835	640.4	658.4
616.248	637	645.2
616.66	654.4	662.4
617.073	642.8	655
617.485	651.4	650.6
617.898	658.4	662.4
618.311	650	655.6
618.723	653.4	651.8
619.136	681.4	688
619.549	669.8	676
619.962	678.6	680.2
620.375	649.2	651
620.788	654.4	657.6
621.201	644.8	660
621.614	659	666.2
622.028	640.8	661.8
622.441	651.2	659
622.854	664.2	665.6
623.268	645.6	646.8
623.681	652.8	661.8
624.095	654.2	657.6
624.509	655.4	662
624.922	660.4	663.8
625.336	641.4	651.8
625.728	647.8	659.4
626.142	667.8	665.4
