#lambda/nm	DC	C1
208.295	567.8	573.2
208.67	504.2	509.4
209.045	470.6	468.4
209.419	466	466.2
209.794	677.4	677.8
210.169	666	659.4
210.544	806.2	800.4
210.919	713.8	715.2
211.295	691.2	693
211.67	705.6	708.2
212.045	706.6	715
212.421	695	694.6
212.796	738	739.6
213.172	705.6	712
213.547	697.2	703.2
213.923	701.2	715.6
214.299	702.2	697.6
214.675	703	715.4
215.051	708.4	710
215.427	717.4	717.4
215.803	732.6	725.8
216.179	721	718.6
216.555	690.4	712.2
216.932	730.2	715.6
217.308	719.8	712.4
217.684	715.8	724.2
218.061	715	719.4
218.438	722	728.8
218.814	719.6	708
219.191	732	737.8
219.568	713	716.8
219.945	722	736
220.322	726	731.8
220.699	730.4	736.4
221.076	735.6	730
221.453	738.8	739.2
221.83	721.6	721.6
222.208	729.8	726.8
222.585	725.2	727.8
222.962	739	744.6
223.34	736	743.6
223.717	729.6	730.2
224.095	717.6	722.8
224.473	726.2	741.2
224.851	724.6	736.2
225.229	723.6	731.6
225.607	743.8	764.8
225.985	720	729.6
226.363	736.6	742.4
226.741	728.8	744.2
227.119	732	741.2
227.497	763.4	746.4
227.876	730	723.8
228.254	741.6	749.2
228.633	744.6	751.2
229.011	743.8	751.2
229.39	742.6	741.8
229.769	750.6	752.4
230.148	756.6	753.8
230.527	775.6	772.4
230.905	742.6	760
231.284	756.4	749.2
231.664	737.8	746.6
232.043	767.6	770
232.422	761.8	773.4
232.801	764	753.4
233.181	769	775.6
233.56	757.4	766.6
233.94	758	770
234.319	751	746.2
234.699	761	777.4
235.079	810	824.4
235.458	815	813
235.838	794	795.4
236.218	766.8	770.6
236.598	767.4	769.2
236.978	770.6	766
237.358	772	774
237.738	771.2	780.8
238.119	783.8	785.8
238.499	766.2	772
238.88	792.8	781.8
239.26	789.8	819.2
239.641	769.8	782
240.021	779.2	790.4
240.402	793.2	787.4
240.783	779.8	776.4
241.163	796.4	796.8
241.544	798.2	802.8
241.925	795.4	787.2
242.306	808.2	804.6
242.687	793.6	787.2
243.069	790.2	796
243.45	794.2	804.6
243.831	786.4	780.8
244.212	778.8	785
244.594	822	828
244.975	798.2	793.2
245.357	792.4	787.4
245.739	768.4	776.6
246.12	776.8	774.2
246.502	790.8	796.2
246.884	763.2	777
247.266	764.6	763
247.648	762.6	777.6
248.03	779.8	787.2
248.412	761.8	769.4
248.794	765.2	763.8
249.176	751.2	750.2
249.559	762.8	772.8
249.941	736.8	737.2
250.323	737	739.8
250.706	731.8	727.8
251.089	738	743.4
251.471	745.8	744.8
251.854	734.6	733.6
252.237	733.4	734.4
252.62	742.8	739.2
253.002	748	723.2
253.385	732.6	730.2
253.769	740.2	737.2
254.152	728.8	724.4
254.535	722	730.2
254.918	711.2	703.6
255.301	725.2	705.8
255.685	712.2	717.6
256.068	710.4	710.8
256.452	748.2	735
256.835	726.8	720.4
257.219	722.4	716.2
257.603	729.2	724.4
257.986	705.4	712.2
258.37	716.8	727.6
258.754	704.8	703.6
259.138	723.8	723.8
259.522	719.6	720.4
259.906	702.2	716.6
260.29	718	720.2
260.675	707.8	711.8
261.059	714.2	711.4
261.443	706.4	703.8
261.828	720.4	714.6
262.212	710.6	712.2
262.597	698	703.2
262.981	702.6	706.8
263.366	717.4	720.2
263.751	707.6	708.8
264.136	707.2	710.8
264.521	716	708
264.906	705	704.2
265.291	719.8	727
265.676	704	707.2
266.061	716.4	724.4
266.446	735	735.6
266.831	714.6	716.2
267.217	734.6	728.4
267.602	716.6	722.2
267.987	720	714.6
268.373	714.8	710.2
268.759	717.2	718.4
269.144	711.8	719.8
269.53	715	709.4
269.916	711.2	709.8
270.302	710.4	710.4
270.688	722.8	724.6
271.074	712.4	705.8
271.46	727.4	734.6
271.846	755.2	748.4
272.232	710.6	714.4
272.618	705	711.4
273.004	711.8	716
273.391	726.8	738.8
273.777	730.6	733.6
274.164	717	731.4
274.55	732.6	736
274.937	718.8	729.4
275.324	708	714.4
275.71	728.6	720.8
276.097	717.6	732.2
276.484	707.8	696.8
276.871	717	719.6
277.258	713.2	736.4
277.645	701.6	704.6
278.032	709	719.2
278.419	715.4	711.4
278.807	716.8	722.8
279.194	706	708.4
279.581	707.2	707.2
279.969	724.8	720.4
280.356	716.4	718.8
280.744	713	720.8
281.131	743.8	740.4
281.519	730.2	726.6
281.907	712.4	719.4
282.295	719.2	713.6
282.682	734.2	721.4
283.07	717.4	710.8
283.458	725.2	726.6
283.846	736.8	726.6
284.235	726	729
284.623	722	730.4
285.011	706.6	708.8
285.399	708.6	720.2
285.788	717.2	720
286.176	702.2	707.8
286.565	733.6	729.6
286.953	707	709.8
287.342	716.2	713
287.731	706.4	718
288.119	701.6	708.2
288.508	708	712.4
288.897	714.2	721.4
289.286	703.4	697.4
289.675	722.8	711.4
290.064	728.4	728.6
290.453	712.4	710.4
290.821	713.2	713.4
291.21	730.6	732.8
291.599	704.4	713.8
291.989	717.4	721.6
292.378	721.6	727.6
292.768	739	741.4
293.157	729.8	728.2
293.547	733.6	731.8
293.936	717	713.6
294.326	719	717.4
294.716	723.6	721.2
295.106	715	710
295.496	727	724.4
295.886	727.2	730.4
296.276	717	718.8
296.666	716.4	710.4
297.056	716.8	713.6
297.446	711	705
297.836	743.6	737.6
298.227	718.4	714.6
298.617	732.2	712.2
299.008	739	733.2
299.398	724.2	710.8
299.789	708.6	719.8
300.179	733.2	728.8
300.57	734.8	735.4
300.961	721.6	723.6
301.352	712.8	719.2
301.742	721.8	721.8
302.133	723.4	729
302.524	715.8	720.4
302.915	722.6	723.8
303.307	715.6	709.8
303.698	732.6	728.8
304.089	728	735.8
304.48	719.8	724
304.872	724.8	734
305.263	719.4	715.4
305.655	719	717
306.046	729.4	734
306.438	731.4	727
306.829	721.6	715.2
307.221	735.8	730.8
307.613	722.8	731.4
308.005	736	734.2
308.397	741.6	741.6
308.789	747.2	742.8
309.181	741.8	750.6
309.573	734.8	746
309.965	728.8	741.6
310.357	722.8	726.8
310.749	734.8	743.2
311.142	719.6	723.6
311.534	734.6	727.8
311.926	725	742.4
312.319	725.2	734.4
312.711	728.4	729.6
313.104	748.6	759.6
313.497	732.2	751.6
313.889	799.4	804.2
314.282	789.4	794
314.675	817.8	812.2
315.068	808	812.6
315.461	830.6	835.8
315.854	876	869.2
316.247	855.2	857
316.64	850.4	859.2
317.033	852	861.2
317.405	866.8	860.6
317.798	847.4	847.8
318.192	837.2	847.4
318.585	814	811.4
318.979	813.8	811
319.372	784.8	788
319.766	782	784.4
320.16	784.6	800
320.553	785.6	801.8
320.947	782.8	797.8
321.341	766.2	770
321.735	775.4	766.8
322.129	756.2	752.2
322.523	803.6	798.4
322.917	767	756.8
323.311	796.2	789.8
323.705	778	767
324.099	787.4	788.4
324.494	789.2	797.8
324.888	778	797.6
325.282	772.2	796.8
325.677	796.8	807.8
326.071	792	802.4
326.466	797.6	800
326.861	792	798.4
327.255	807	802.4
327.65	805.4	817
328.045	811.4	808.8
328.44	795	797.4
328.835	805.8	793.6
329.23	794.8	788.4
329.625	823.6	812.4
330.02	793.6	795.2
330.415	810.2	832
330.81	805.4	801.8
331.206	795	815.4
331.601	793.2	806.8
331.996	812.6	817.8
332.37	820.4	841.6
332.766	790.4	800.2
333.161	835.2	844.4
333.557	801.8	805.2
333.953	798.8	813.2
334.348	1150	1226.4
334.744	811.8	826
335.14	815.4	822
335.536	837	827.2
335.932	850.4	858.2
336.328	842.2	852.2
336.724	852.8	868.4
337.12	849.2	861.4
337.516	866.8	878
337.913	861	870.4
338.309	889.4	880.4
338.705	869.6	871.4
339.102	871	887.4
339.498	857.4	857.6
339.895	880.4	881.6
340.291	851.4	862.4
340.688	869.2	874.2
341.085	850.2	857.8
341.481	851.6	852.4
341.878	861.2	863.6
342.275	880.6	876.2
342.672	851.2	857.2
343.069	857.4	850.8
343.466	851.4	854
343.842	865.6	886.8
344.239	854	868.4
344.636	870.8	876.6
345.033	864	869.4
345.431	861.2	869.2
345.828	872.6	874.8
346.225	865.4	867.6
346.623	907.4	912.2
347.02	878.6	884.6
347.418	880.2	890.2
347.816	893.6	894.4
348.213	866.4	867.4
348.611	890.8	883.2
349.009	864.4	872.4
349.407	888.6	885.4
349.805	851.6	871.4
350.203	859.4	873
350.601	896	896.8
350.999	863.4	888.2
351.397	927.4	926.8
351.795	873.8	872.8
352.193	881.2	885.6
352.57	879	886.6
352.969	887.6	879.8
353.367	868.6	859.6
353.766	855.4	853.8
354.164	871.8	875.4
354.563	871	885.6
354.961	869.6	863.4
355.36	862.8	862
355.759	862.8	862.4
356.158	846.8	848
356.557	857.2	856
356.956	846.2	844
357.355	847.8	841.6
357.754	855	844
358.153	850.8	849.4
358.552	872.8	877.2
358.951	857.8	846.4
359.35	858.6	865
359.75	847	833.8
360.149	834.6	844.2
360.527	833.4	833.4
360.926	833.4	837.2
361.326	843	849
361.726	848.4	836
362.125	831.4	834.4
362.525	842.4	847.6
362.925	833.2	834
363.325	843.2	836.6
363.724	837	835.8
364.124	833.8	832.8
364.524	829.4	841
364.924	868	868.6
365.324	915.2	922.4
365.725	986.6	984
366.125	1138.4	1156.2
366.525	1315.2	1343
366.904	1530.8	1547.6
367.304	1741.8	1781.4
367.705	2011.2	2026.4
368.105	2163.6	2181.8
368.506	2253.6	2317.6
368.906	2356	2409.8
369.307	2375.2	2398.6
369.708	2308.4	2357.4
370.108	2164.8	2199.2
370.509	2008.4	2054.6
370.91	1796.2	1829.4
371.311	1555.2	1615.4
371.712	1376.6	1400
372.113	1203.6	1211.6
372.514	1059.6	1068.6
372.894	967.4	984.2
373.295	911.4	898.8
373.696	877.6	884.6
374.097	852	847.2
374.499	862	850.6
374.9	827.8	820.4
375.301	806	808.6
375.703	807.4	814.4
376.105	791.8	800.6
376.506	811	821.2
376.908	803	825.4
377.309	808	800.4
377.711	810.8	814.6
378.113	804.2	799.6
378.493	809.6	811.2
378.895	804.2	805.8
379.297	819.8	824.8
379.699	813.8	802
380.102	822.4	824.6
380.504	828.8	822.2
380.906	826.4	824.8
381.308	858.6	862.4
381.71	826	831.2
382.113	849	853.8
382.515	849.6	859.8
382.918	849	861.8
383.299	843.6	858.4
383.701	862.2	875.8
384.104	864.6	867.6
384.507	847.8	854.4
384.909	865.4	859
385.312	848.6	854.6
385.715	848.8	847.6
386.118	856.4	859
386.521	840.2	846.4
386.924	858.8	874.6
387.327	843.4	842
387.709	818	835.2
388.112	814	818
388.515	834.6	832.2
388.918	826.2	830
389.322	831.4	837.6
389.725	814.4	827.2
390.129	839.6	842.6
390.532	822.8	826.4
390.936	810	814
391.339	813.8	813.4
391.743	816.4	827
392.125	815	817
392.529	832.4	842.4
392.933	842.2	839.2
393.337	827.4	839.8
393.74	824.4	829.4
394.144	826.4	846.6
394.548	825.6	836.8
394.953	832.6	838.4
395.357	840.8	849.8
395.761	829.2	834.4
396.144	838.6	844
396.548	838.6	832.8
396.952	827	837.6
397.357	838.2	852
397.761	821.8	849.6
398.166	840.4	850.8
398.57	841.4	847.8
398.975	840	847.8
399.379	858.4	852.8
399.763	910.2	921
400.168	863.4	875
400.572	866.6	882
400.977	879.6	879
401.382	909.4	923.6
401.787	908.4	916
402.192	930.4	935.6
402.597	941.4	952
403.002	933.6	928.8
403.386	975.6	984.6
403.791	1005.4	1020
404.197	1050.2	1066
404.602	1239.2	1279.2
405.007	1690.8	1765.6
405.413	2558	2703.8
405.818	3920	4142.6
406.224	5674	6025.4
406.608	7403.4	7900
407.014	8963.8	9584.2
407.42	10317.8	11038
407.825	11419.6	12291.2
408.231	12199.8	13081
408.637	12633.6	13484.4
409.043	12638.6	13509.6
409.449	12070.8	12908
409.834	10992.6	11763.6
410.24	9617.6	10317.8
410.646	8318.2	8876.8
411.052	7057.6	7442.4
411.458	5841.2	6189
411.865	4897.8	5178.2
412.271	4153.4	4394.6
412.677	3606.6	3802.8
413.062	3195	3339.8
413.469	2832	2970
413.875	2670.6	2776.8
414.282	2529.6	2610.8
414.689	2422.4	2535.6
415.095	2421.2	2499.6
415.502	2416.4	2518.2
415.888	2493.8	2571.8
416.294	2507	2599.8
416.701	2642.6	2734.8
417.108	2679.4	2758
417.515	2787.8	2881.6
417.923	2878	3014.2
418.33	3003.8	3081.2
418.715	3087.2	3217.4
419.123	3162.6	3289
419.53	3253.6	3393
419.937	3401.8	3504.6
420.345	3467	3604
420.752	3559.6	3695.4
421.16	3677.2	3801.6
421.546	3779.2	3904.2
421.953	3833.6	3995.4
422.361	3932.8	4046
422.769	4033.6	4177
423.177	4124.4	4280.4
423.585	4239.4	4428.2
423.992	4335.8	4515.4
424.379	4458.2	4613.4
424.787	4590.6	4743.4
425.195	4711	4875.6
425.603	4789	4989.2
426.011	4942.2	5140.2
426.419	5076.8	5268.2
426.806	5215	5401.6
427.214	5363.8	5581.8
427.623	5527.2	5720.4
428.031	5722.6	5906
428.44	5873.4	6079
428.848	6057.2	6272.6
429.235	6244.4	6492.2
429.644	6453.8	6642.8
430.053	6578.4	6864.2
430.461	6810.6	7092.8
430.87	6991.8	7227.6
431.279	7180.8	7397.6
431.666	7325	7606.8
432.075	7481.6	7757.6
432.484	7710	8003.8
432.893	7880.6	8155.8
433.302	8100.2	8395.6
433.711	8309.2	8623.6
434.099	8492.8	8780
434.508	8706	9044
434.918	9079.6	9417.4
435.327	9750.2	10094.2
435.737	11198	11637.4
436.125	14597	15186.6
436.534	20704.8	21678.6
436.944	30145.4	31555.2
437.353	40474.8	42371.4
437.763	49929	52415.6
438.173	58390.4	61257.8
438.561	64408.2	66265.6
438.971	69467.6	71067
439.381	69861.4	70707.4
439.791	72699.4	73889.2
440.201	70894.2	72280.6
440.589	67401.4	70132.2
440.999	59826	62618.8
441.409	51635.8	54129
441.819	43480.2	45400.4
442.23	35907.6	37395.8
442.619	29010	30309.8
443.029	23597.6	24634.2
443.439	19741	20551.4
443.85	16971.6	17658
444.26	14995.2	15584.2
444.649	13741.6	14251.8
445.06	13045.6	13559.8
445.471	12849.2	13291.2
445.881	12805.4	13195.8
446.292	12883	13262.8
446.682	12919.6	13315.4
447.092	12924.2	13362.2
447.503	13095.4	13521.4
447.914	13130.8	13546.2
448.325	13175.4	13630.2
448.715	13198.4	13699.8
449.126	13283	13760
449.537	13403.6	13885.6
449.948	13447.4	13903.6
450.338	13502.8	13953
450.75	13614.6	14060.4
451.161	13663.2	14137.2
451.572	13692.4	14131.4
451.984	13706	14172.8
452.374	13793.6	14204.2
452.786	13808	14302.4
453.197	13832.4	14327.4
453.609	13873.8	14336
453.999	13849	14357
454.411	13903.2	14353.8
454.823	13943.8	14373.4
455.235	13926.4	14444
455.647	13907	14407.8
456.037	13942.2	14450.8
456.449	13944	14401
456.862	13941.6	14427.2
457.274	13915.2	14421
457.665	13908.6	14332.8
458.077	13869	14364.6
458.489	13839.6	14328.8
458.902	13788.6	14233.4
459.293	13782.8	14212.8
459.705	13711	14177.8
460.118	13688.8	14117.6
460.53	13619.8	14109.6
460.921	13565.8	14030.8
461.334	13528.6	13923.8
461.747	13446.2	13932.8
462.16	13380	13857
462.551	13322.2	13814
462.964	13288.2	13704.4
463.377	13175.2	13572
463.79	13136.6	13522
464.182	13082.6	13516.2
464.595	12995.2	13442.2
465.008	12896.4	13334
465.421	12892.8	13249.6
465.813	12792.8	13216
466.226	12732.6	13181.2
466.64	12665.6	13111
467.053	12665.4	13043.8
467.445	12580.8	13017
467.859	12499	12947.4
468.272	12493	12847
468.686	12432.4	12878.4
469.078	12329.6	12811.6
469.492	12279.4	12703.2
469.906	12220.6	12635.6
470.298	12142.8	12529.4
470.712	12013.6	12431.6
471.126	11996.4	12377.6
471.54	11749.8	12130.6
471.933	11580.4	12024
472.347	11531.4	11849.2
472.761	11377.4	11724.2
473.175	11225.6	11614
473.568	11158.6	11499.4
473.982	10979.6	11379.4
474.397	10915.6	11255.6
474.79	10792.2	11192.4
475.204	10752.6	11076.8
475.619	10699.2	11010.2
476.033	10522	10962.2
476.426	10442.4	10779.8
476.841	10331.6	10674
477.256	10282.2	10578.2
477.649	10098.8	10462.8
478.064	10021.8	10371.2
478.479	9874.6	10221.4
478.872	9753.8	10070.8
479.287	9643.4	10023
479.702	9584	9945.6
480.118	9580	9931.6
480.511	9530.2	9871.2
480.927	9572.6	9880.6
481.342	9576.8	9897.4
481.736	9719.4	10028.4
482.151	9819.6	10185
482.566	10098	10451.2
482.96	10435	10835
483.376	10961.2	11374.2
483.792	11556.8	12017
484.186	12513.8	13023.6
484.602	13652.8	14209.4
485.017	15058.8	15647.8
485.412	16738.4	17353.8
485.827	18798.4	19553.4
486.243	21151.6	21899.6
486.638	23825	24711.2
487.054	26618.6	27647.8
487.47	29621.2	30713.8
487.865	32535.6	33802
488.281	35460.4	36840.4
488.697	38193.4	39642.6
489.092	40712.6	42249
489.508	42716.8	44289.8
489.925	44471	46085.4
490.32	45580.8	47336.6
490.736	46370.4	48105.8
491.153	46590.8	48409.2
491.548	46597.4	48324.2
491.964	46128.6	47966.4
492.381	45545.8	47240.8
492.776	44604.4	46473.2
493.193	43561.4	45307.6
493.61	42538.8	44094.2
494.006	41263.6	42739.4
494.422	39935.4	41476.8
494.84	38555.6	40083.8
495.235	37313	38672.2
495.652	35922.2	37265.8
496.069	34518.8	35902.8
496.465	33172.4	34493.6
496.883	31874.4	33190.4
497.3	30756.4	31846.4
497.696	29513.8	30569
498.113	28393	29489.6
498.509	27308	28343.2
498.927	26271.8	27255.4
499.344	25316.2	26236.8
499.741	24228	25149.2
500.158	23190.8	24027.4
500.576	22087.4	22941.8
500.973	20962	21751.2
501.39	19780.4	20462.2
501.787	18505.8	19223.4
502.205	17277.8	17900.4
502.623	16013.4	16581.4
503.02	14784	15299
503.438	13560.2	14100.4
503.856	12504.4	12936.6
504.253	11509.2	11948
504.671	10515.4	10896.8
505.068	9699.6	10011.8
505.486	8924	9222.2
505.905	8248	8534.8
506.302	7662.6	7961.6
506.72	7125.8	7429.2
507.118	6685.2	6933.6
507.536	6330.6	6532.8
507.955	5959.6	6158.2
508.352	5704.8	5896.2
508.771	5472.2	5651.8
509.169	5260.8	5417.6
509.587	5076	5273.8
510.006	4952.2	5114
510.404	4819	4988.8
510.823	4734.4	4878
511.221	4650.8	4802.8
511.64	4598.6	4758.8
512.038	4567.4	4722.6
512.457	4520.8	4699.6
512.877	4517	4654.8
513.275	4469.8	4607.6
513.694	4404	4578.8
514.092	4418.4	4541.2
514.512	4408.2	4540.8
514.91	4352	4502.4
515.33	4341.6	4471.2
515.749	4308	4397.2
516.148	4266.2	4388
516.568	4236	4362.6
516.966	4197.8	4321.8
517.386	4140.4	4270
517.785	4070.6	4217.8
518.205	4043.4	4149.4
518.603	4010.2	4106.2
519.024	3946.8	4074.6
519.444	3876	4068
519.843	3874.4	3972.8
520.263	3816.4	3931.2
520.662	3742.6	3854.8
521.082	3716.4	3820.2
521.481	3614.4	3754.2
521.902	3572.4	3711.4
522.301	3522.8	3648.4
522.722	3480.6	3606.2
523.121	3421.8	3540.4
523.542	3370.8	3468.4
523.963	3350.4	3441.6
524.362	3334	3395.8
524.783	3287.6	3370.2
525.183	3231.2	3341.2
525.604	3209.4	3292.2
526.003	3174.4	3286.6
526.425	3152.8	3261.8
526.824	3156	3256.4
527.246	3150.2	3258.4
527.646	3145.2	3232
528.067	3156.6	3255
528.467	3167.8	3261.8
528.888	3194	3297.6
529.289	3210	3292
529.71	3226	3325.8
530.11	3240.6	3348.2
530.532	3244	3370.4
530.932	3282.8	3390.4
531.354	3289	3404.4
531.755	3451.6	3542
532.176	3481.4	3623
532.577	3714	3802.2
532.999	4042.6	4177.2
533.4	4446.6	4640.4
533.822	4893	5076
534.223	5345.4	5508.4
534.645	5810.8	5996.6
535.046	6246	6478.8
535.468	6765.8	7043.4
535.869	7272.2	7526
536.292	7762.6	8021.4
536.693	8266.4	8685.6
537.115	8938.4	9343.8
537.516	9951.4	10308.4
537.939	11254.6	11673.8
538.34	12948.8	13468.8
538.742	15137.2	15694.6
539.165	17805.4	18521
539.566	21309.2	22160.2
539.989	25785.2	26788.8
540.391	31509.8	32927.8
540.814	39036.4	40688
541.216	48936	50890.8
541.639	61038.8	63261.4
542.041	73112.4	74521.4
542.464	77293	77285.8
542.866	77238.8	77232.2
543.268	77191	77185.6
543.691	77148	77142.8
544.093	77109.6	77104.2
544.517	77075	77069.8
544.919	77043.6	77040
545.343	77016.2	77011.6
545.745	76990	76986.6
546.147	76967	76964
546.571	76946.6	76943.6
546.974	76927.8	76925
547.398	76910	76907.8
547.8	76894.8	76892.2
548.224	76881.2	76879
548.627	76868.4	76866.2
549.03	76856.8	76854.6
549.454	76846.8	76844.6
549.857	76838	76835.6
550.281	76829.8	76827.4
550.684	76821.8	76818.8
551.087	76814.4	76812
551.512	76807.8	76805.6
551.915	76801.8	76800.4
552.34	75304.8	76724.8
552.743	71371.8	73309.4
553.146	66069.8	68459
553.571	60773.8	63092
553.975	55674.2	57865
554.399	51070.6	53050.6
554.803	46671.4	48521.4
555.207	42458.6	44129.8
555.632	38276.4	39753.2
556.036	34323.2	35669.6
556.461	30511.2	31694.6
556.865	27076.8	28038.2
557.268	23842.8	24742.8
557.694	21066.6	21793.4
558.098	18526.6	19219.8
558.502	16474	16941.2
558.927	14625.8	15124.4
559.332	13109	13536
559.736	11849.8	12255.4
560.162	10797.4	11186.8
560.566	9970.8	10348.2
560.992	9314.8	9635.6
561.396	8816.4	9023.4
561.801	8344.8	8616.8
562.227	8009	8305.8
562.631	7722.8	7958.4
563.036	7451	7734.6
563.462	7263.4	7507.6
563.867	7075.2	7353.4
564.272	6878.8	7196.6
564.698	6743.8	7001
565.103	6557	6776.8
565.508	6449.8	6628.2
565.935	6239.2	6507.6
566.34	6160.4	6351.8
566.745	6027.4	6244.8
567.172	5887.8	6089.6
567.577	5865	6044.8
567.982	5752.8	5969.6
568.409	5681.8	5909.8
568.815	5602.2	5803.4
569.22	5580.2	5727.8
569.626	5523.2	5759.8
570.053	5485	5672.8
570.459	5458.8	5630.4
570.865	5465	5628.6
571.292	5459.2	5623.8
571.698	5453.4	5628.8
572.104	5455.4	5647.8
572.531	5541.8	5747.4
572.937	5650.6	5850.6
573.343	5764.4	5927
573.75	5894.4	6128.6
574.177	6133.4	6354.8
574.583	6495.6	6732.8
574.99	7113	7427.8
575.396	8285.8	8599.6
575.824	9739.8	10194.2
576.231	11210.2	11748.6
576.637	12664	13343.6
577.065	14460.4	15182.4
577.472	16452.8	17361.4
577.879	18945.8	19951.8
578.286	21432.6	22596.4
578.714	23857.8	25189.6
579.121	26105.6	27483.4
579.528	28031.8	29448.4
579.935	30097.2	31636
580.364	31971.2	33757.6
580.771	34051.8	35825.6
581.178	35918.8	37645.4
581.585	37772.6	39551.4
582.014	39608.2	41475
582.421	41539.2	43271
582.829	43356.8	45071.6
583.236	45068	47055
583.644	46600.4	48548.2
584.073	47903.8	49853.4
584.481	49172	51099.2
584.889	50281.8	52316.2
585.296	51651.8	53595
585.726	53116.8	55139.4
586.134	54595	56667.6
586.542	55858.6	58032
586.95	56898.2	58965.8
587.358	57474.8	59590.8
587.787	57972.4	60130.2
588.196	58003.8	60318.8
588.604	57809.6	59984.8
589.012	56720.6	58956.6
589.421	54947.2	56992.4
589.851	52603.4	54535.4
590.259	50486	52401.6
590.668	48603.4	50477.4
591.076	47122.4	48945.8
591.485	46038	47714.8
591.894	45039.8	46772.8
592.324	44064	45772.4
592.733	43080.6	44736
