#lambda/nm	C1
208.295	544.2
208.67	496.2
209.045	458.2
209.419	452
209.794	680.6
210.169	664
210.544	804
210.919	700
211.295	680.4
211.67	698.4
212.045	690
212.421	683.4
212.796	725
213.172	688
213.547	682.8
213.923	686
214.299	676.8
214.675	706.4
215.051	691.4
215.427	693
215.803	704.4
216.179	700.2
216.555	680.8
216.932	697.8
217.308	684
217.684	688.4
218.061	693
218.438	695.2
218.814	682.4
219.191	698.6
219.568	687.4
219.945	679.8
220.322	694.2
220.699	701.4
221.076	703.2
221.453	694
221.83	686.8
222.208	688.6
222.585	687
222.962	687
223.34	691.8
223.717	689
224.095	703.6
224.473	688.8
224.851	681.8
225.229	674.2
225.607	712.4
225.985	685.2
226.363	691.6
226.741	686.4
227.119	691.4
227.497	695
227.876	669.8
228.254	706.8
228.633	692.8
229.011	690.8
229.39	693.2
229.769	690.6
230.148	698.8
230.527	708.2
230.905	692.8
231.284	696.2
231.664	677.6
232.043	708.2
232.422	701.4
232.801	674.8
233.181	703.6
233.56	687.6
233.94	686.2
234.319	681.6
234.699	691.2
235.079	742
235.458	731.8
235.838	716
236.218	676
236.598	671.8
236.978	678.4
237.358	687.6
237.738	685.2
238.119	692.4
238.499	668.6
238.88	690.8
239.26	709.2
239.641	681
240.021	674.4
240.402	695
240.783	690.2
241.163	686.2
241.544	700.6
241.925	692.6
242.306	713.6
242.687	693.4
243.069	686.8
243.45	692
243.831	684
244.212	675.4
244.594	725.8
244.975	705.2
245.357	697.2
245.739	683.2
246.12	695
246.502	712
246.884	696.4
247.266	685.2
247.648	695
248.03	716
248.412	695
248.794	690.8
249.176	689.8
249.559	692.2
249.941	682.6
250.323	671.8
250.706	679.4
251.089	694.8
251.471	692.4
251.854	679.4
252.237	685.8
252.62	703
253.002	692.6
253.385	691.2
253.769	708.2
254.152	684
254.535	700.6
254.918	686.2
255.301	683.6
255.685	686
256.068	680.4
256.452	717
256.835	703
257.219	693.8
257.603	708.2
257.986	684.8
258.37	698.2
258.754	680
259.138	702
259.522	705.4
259.906	695.6
260.29	702.6
260.675	689.6
261.059	691.6
261.443	677.2
261.828	703.6
262.212	688.4
262.597	675.2
262.981	693
263.366	698
263.751	697
264.136	686.6
264.521	687
264.906	681.6
265.291	705.4
265.676	679.8
266.061	696.2
266.446	710
266.831	693.2
267.217	714.2
267.602	693.6
267.987	691
268.373	689
268.759	698.2
269.144	695.8
269.53	690
269.916	677.2
270.302	691
270.688	692.8
271.074	689.6
271.46	706.4
271.846	733
272.232	695.2
272.618	683
273.004	682.4
273.391	704
273.777	710.8
274.164	700.8
274.55	703
274.937	692.4
275.324	686.2
275.71	700.4
276.097	708
276.484	690
276.871	698
277.258	695.4
277.645	682.4
278.032	695.4
278.419	695
278.807	698.6
279.194	688
279.581	689.6
279.969	698.4
280.356	688.4
280.744	695
281.131	715.8
281.519	697.2
281.907	685.2
282.295	682.8
282.682	698
283.07	692
283.458	706.2
283.846	696.8
284.235	706.2
284.623	702.6
285.011	679.8
285.399	693
285.788	700.8
286.176	681.8
286.565	711
286.953	684.4
287.342	690.8
287.731	680
288.119	694.4
288.508	690.8
288.897	694.4
289.286	676.8
289.675	696.4
290.064	706.8
290.453	692.8
290.821	701.8
291.21	712.4
291.599	689.2
291.989	687.4
292.378	703.8
292.768	720.4
293.157	706
293.547	711.2
293.936	696
294.326	679.4
294.716	694.4
295.106	687.6
295.496	689.6
295.886	711
296.276	681
296.666	688.2
297.056	685.2
297.446	686
297.836	708.6
298.227	691.6
298.617	695.4
299.008	712.6
299.398	696.2
299.789	682.8
300.179	698.8
300.57	705.4
300.961	686.8
301.352	684.6
301.742	705.4
302.133	697.6
302.524	690.2
302.915	692
303.307	690
303.698	705.6
304.089	707.4
304.48	694.6
304.872	695.6
305.263	687.6
305.655	694.6
306.046	700.4
306.438	707.8
306.829	693
307.221	710.8
307.613	710.4
308.005	706.6
308.397	710.4
308.789	721.8
309.181	716.8
309.573	714
309.965	718.8
310.357	692.6
310.749	713.8
311.142	678.6
311.534	687.2
311.926	699.4
312.319	698.2
312.711	690.4
313.104	710.4
313.497	697.6
313.889	738.2
314.282	714.2
314.675	724.4
315.068	695.8
315.461	700.8
315.854	728
316.247	698
316.64	700.4
317.033	696.4
317.405	706.4
317.798	703.2
318.192	704.6
318.585	687.8
318.979	704.2
319.372	688.8
319.766	696.6
320.16	700.4
320.553	708.6
320.947	716.6
321.341	690.2
321.735	684.8
322.129	682
322.523	727.4
322.917	691.2
323.311	696.8
323.705	699.6
324.099	707.8
324.494	714.8
324.888	715.4
325.282	690.4
325.677	714.4
326.071	705.2
326.466	711
326.861	688.6
327.255	713.8
327.65	709
328.045	716.6
328.44	694.4
328.835	692.8
329.23	692.8
329.625	718.6
330.02	695.6
330.415	726.4
330.81	694.6
331.206	701.2
331.601	692
331.996	706.8
332.37	720.2
332.766	680
333.161	726.4
333.557	695.6
333.953	698.2
334.348	1196.2
334.744	695.4
335.14	693.4
335.536	690.8
335.932	708.8
336.328	702
336.724	707.6
337.12	698.8
337.516	702
337.913	696.2
338.309	711.4
338.705	687.6
339.102	704
339.498	692.8
339.895	715.8
340.291	688.4
340.688	703.4
341.085	686
341.481	697.4
341.878	697
342.275	720
342.672	690.6
343.069	685.6
343.466	671.4
343.842	703.8
344.239	682.6
344.636	691.6
345.033	679.8
345.431	690.6
345.828	687.8
346.225	694.2
346.623	733.6
347.02	695.2
347.418	701.2
347.816	709.2
348.213	679.2
348.611	697
349.009	684
349.407	704.2
349.805	684.2
350.203	677
350.601	704.2
350.999	689.4
351.397	734
351.795	699.4
352.193	708.8
352.57	699
352.969	709.4
353.367	682.4
353.766	678.6
354.164	687.2
354.563	710.8
354.961	690.4
355.36	689.6
355.759	679.8
356.158	677
356.557	688.2
356.956	679
357.355	673.4
357.754	695
358.153	690.4
358.552	715.4
358.951	679.4
359.35	700.8
359.75	682.8
360.149	683.2
360.527	673
360.926	680.2
361.326	688.2
361.726	686.6
362.125	676
362.525	704.4
362.925	686
363.325	675.2
363.724	687.8
364.124	684.8
364.524	674.2
364.924	682.6
365.324	702
365.725	672.2
366.125	702.6
366.525	685.4
366.904	686.6
367.304	663.8
367.705	708.4
368.105	700.2
368.506	689
368.906	688
369.307	685.6
369.708	695.6
370.108	679
370.509	703
370.91	689.2
371.311	694
371.712	696
372.113	684.6
372.514	672
372.894	679.4
373.295	683.2
373.696	698.6
374.097	689.8
374.499	718.2
374.9	682.6
375.301	680.8
375.703	688.2
376.105	668.8
376.506	676.2
376.908	694
377.309	676.4
377.711	691.8
378.113	677
378.493	689.2
378.895	679.8
379.297	697.6
379.699	673.2
380.102	688.8
380.504	682.4
380.906	678.8
381.308	715.4
381.71	684.4
382.113	694.8
382.515	691.2
382.918	692
383.299	691.2
383.701	692.6
384.104	682.6
384.507	661.8
384.909	680.6
385.312	672.8
385.715	682
386.118	687.2
386.521	677.8
386.924	696
387.327	686.8
387.709	674
388.112	657.4
388.515	677.2
388.918	688.6
389.322	686.6
389.725	673.4
390.129	708.6
390.532	688
390.936	684.2
391.339	685.4
391.743	683.8
392.125	669.8
392.529	693.8
392.933	699.6
393.337	681
393.74	688.4
394.144	677.6
394.548	680.2
394.953	680.8
395.357	692.6
395.761	678.8
396.144	693.2
396.548	680.8
396.952	698.6
397.357	692.8
397.761	677
398.166	679.6
398.57	685.2
398.975	679.4
399.379	685.8
399.763	744.8
400.168	686.8
400.572	688.2
400.977	680.8
401.382	703.8
401.787	690
402.192	706.4
402.597	701
403.002	672
403.386	705.4
403.791	713
404.197	682.8
404.602	682.2
405.007	692
405.413	679.2
405.818	687.8
406.224	684.2
406.608	683.8
407.014	682.2
407.42	716.4
407.825	685.8
408.231	705.6
408.637	687.4
409.043	707
409.449	685.8
409.834	677
410.24	688.6
410.646	702
411.052	703
411.458	696.8
411.865	694.4
412.271	698.4
412.677	689.6
413.062	691.6
413.469	680.6
413.875	710.4
414.282	701.8
414.689	688.8
415.095	693.2
415.502	683.2
415.888	695.4
416.294	673.2
416.701	738.4
417.108	684
417.515	697.6
417.923	679.6
418.33	710
418.715	696.4
419.123	685.8
419.53	687.4
419.937	695.4
420.345	709.4
420.752	677
421.16	704.2
421.546	703
421.953	708.8
422.361	676.4
422.769	691.6
423.177	677.6
423.585	712.6
423.992	718.6
424.379	703
424.787	697.6
425.195	707.8
425.603	688.6
426.011	693.8
426.419	698.8
426.806	689.8
427.214	694.2
427.623	700.8
428.031	718.6
428.44	689.6
428.848	705.4
429.235	705.4
429.644	686.8
430.053	689
430.461	700.4
430.87	723.4
431.279	702.6
431.666	683.8
432.075	696.6
432.484	696
432.893	685.6
433.302	708.6
433.711	749.4
434.099	692.6
434.508	689.4
434.918	675.2
435.327	700.6
435.737	689.6
436.125	693.6
436.534	691.6
436.944	692.2
437.353	701.4
437.763	710
438.173	679.6
438.561	701.4
438.971	670.8
439.381	688
439.791	693.8
440.201	665.4
440.589	683.6
440.999	694.6
441.409	697.2
441.819	673
442.23	702.4
442.619	707.2
443.029	687.8
443.439	687.4
443.85	711.2
444.26	710.8
444.649	695.6
445.06	691.4
445.471	676.4
445.881	677.4
446.292	706.8
446.682	713.4
447.092	676.2
447.503	738
447.914	675
448.325	683
448.715	692.2
449.126	683
449.537	692.4
449.948	691.6
450.338	683.4
450.75	694.6
451.161	700.6
451.572	691
451.984	687.6
452.374	665
452.786	690.4
453.197	690.6
453.609	696.4
453.999	673
454.411	673.8
454.823	703.4
455.235	693.8
455.647	688
456.037	692.4
456.449	677.8
456.862	696.8
457.274	687.2
457.665	680.8
458.077	686.8
458.489	720.4
458.902	676
459.293	678
459.705	673
460.118	676
460.53	678.8
460.921	681.4
461.334	685
461.747	685.2
462.16	690.6
462.551	691.8
462.964	689.2
463.377	672.8
463.79	679.6
464.182	706.6
464.595	688.8
465.008	690.8
465.421	687.2
465.813	677.8
466.226	690.2
466.64	683.2
467.053	738.6
467.445	692
467.859	703.2
468.272	688.2
468.686	698.4
469.078	682.2
469.492	673.8
469.906	689.8
470.298	694.4
470.712	674.2
471.126	745.6
471.54	676.4
471.933	674.8
472.347	683.2
472.761	678.2
473.175	672.6
473.568	686
473.982	669.6
474.397	683.8
474.79	683.6
475.204	687.2
475.619	689.6
476.033	696.4
476.426	674.8
476.841	669.6
477.256	708.8
477.649	672.4
478.064	675.2
478.479	674.8
478.872	675.8
479.287	662.4
479.702	668.4
480.118	683
480.511	684.2
480.927	675.4
481.342	683.6
481.736	674.8
482.151	676.2
482.566	702.6
482.96	684.6
483.376	692.4
483.792	678.6
484.186	680.6
484.602	680.2
485.017	672
485.412	687.6
485.827	686
486.243	688.2
486.638	705.6
487.054	690.8
487.47	697.2
487.865	680.2
488.281	670.8
488.697	675.2
489.092	666.8
489.508	674.8
489.925	697.4
490.32	671.8
490.736	681.4
491.153	679.4
491.548	684.6
491.964	696.6
492.381	665
492.776	685.6
493.193	683.8
493.61	684.8
494.006	695
494.422	687.6
494.84	673.4
495.235	690.8
495.652	679.8
496.069	689
496.465	668.6
496.883	684.4
497.3	706
497.696	678
498.113	690
498.509	665.8
498.927	671
499.344	674.6
499.741	679.8
500.158	681.6
500.576	690.6
500.973	678.6
501.39	668.8
501.787	674.8
502.205	683.2
502.623	667
503.02	676
503.438	678.2
503.856	678.4
504.253	682.2
504.671	683.8
505.068	668.8
505.486	676.4
505.905	706.2
506.302	675.8
506.72	687.4
507.118	669.2
507.536	683.4
507.955	682.2
508.352	688.8
508.771	688.6
509.169	685.6
509.587	679.2
510.006	679.6
510.404	660.4
510.823	674
511.221	682.8
511.64	679.4
512.038	692.2
512.457	675.2
512.877	686.6
513.275	677.2
513.694	681.6
514.092	673
514.512	678.8
514.91	677
515.33	684.2
515.749	684
516.148	675
516.568	683.8
516.966	674
517.386	673
517.785	680.6
518.205	678.8
518.603	671.8
519.024	667.6
519.444	684.6
519.843	696
520.263	696.2
520.662	677.8
521.082	664.6
521.481	680
521.902	671
522.301	677
522.722	679
523.121	681.2
523.542	672.2
523.963	674
524.362	674.2
524.783	684.4
525.183	682
525.604	681.2
526.003	661.6
526.425	677.6
526.824	683
527.246	685.4
527.646	684.6
528.067	680
528.467	680.2
528.888	678.4
529.289	669
529.71	672.2
530.11	672.4
530.532	679.2
530.932	666
531.354	668
531.755	711.8
532.176	678.6
532.577	677.4
532.999	676
533.4	673
533.822	682
534.223	675.6
534.645	668.2
535.046	675.2
535.468	672
535.869	690.6
536.292	671.8
536.693	718.4
537.115	673.8
537.516	675.2
537.939	677.4
538.34	700.4
538.742	694.8
539.165	681.8
539.566	671.4
539.989	662.4
540.391	669.4
540.814	671.6
541.216	678.2
541.639	670.2
542.041	686
542.464	677
542.866	670.8
543.268	659.6
543.691	680.8
544.093	684
544.517	694.4
544.919	668.8
545.343	701
545.745	660.6
546.147	676
546.571	673.8
546.974	663.8
547.398	681.2
547.8	674
548.224	684.6
548.627	663
549.03	675.4
549.454	661.8
549.857	661.4
550.281	662.2
550.684	666
551.087	677.2
551.512	679.4
551.915	682
552.34	680.2
552.743	671.4
553.146	667.8
553.571	670.4
553.975	688.2
554.399	661.4
554.803	724.4
555.207	661.6
555.632	670.8
556.036	668.6
556.461	667.2
556.865	668
557.268	664.4
557.694	670.4
558.098	686
558.502	691.8
558.927	673.8
559.332	669.8
559.736	678.4
560.162	675.6
560.566	675
560.992	678.2
561.396	677
561.801	672.8
562.227	676.2
562.631	665
563.036	668.6
563.462	676.8
563.867	673.6
564.272	649.8
564.698	667.2
565.103	659.6
565.508	694.6
565.935	675
566.34	665.8
566.745	683
567.172	659.8
567.577	687.8
567.982	684.2
568.409	681.4
568.815	657.4
569.22	678.6
569.626	679.4
570.053	659
570.459	676.8
570.865	677
571.292	671.8
571.698	679
572.104	652.4
572.531	672.8
572.937	673.2
573.343	674.2
573.75	663.6
574.177	671.6
574.583	677.4
574.99	671
575.396	678.4
575.824	667
576.231	674.4
576.637	674.4
577.065	700.8
577.472	663.8
577.879	672
578.286	689.8
578.714	661.2
579.121	669.8
579.528	676.2
579.935	685.6
580.364	672.8
580.771	659.2
581.178	663.8
581.585	677.2
582.014	681.6
582.421	659
582.829	664.8
583.236	685.8
583.644	660
584.073	664.8
584.481	671.8
584.889	662.8
585.296	671.2
585.726	667.2
586.134	659.8
586.542	663.2
586.95	694
587.358	662.4
587.787	674.6
588.196	660.4
588.604	658.8
589.012	670.2
589.421	658
589.851	658.2
590.259	673.6
590.668	664.8
591.076	709.2
591.485	664.6
591.894	676.8
592.324	680.6
592.733	689.4
593.142	656.6
593.551	666.6
593.96	713.6
594.369	653.8
594.8	649.6
595.209	660
595.618	643.6
596.028	662.4
596.437	655
596.847	675.2
597.256	665
597.687	683.2
598.097	669.2
598.507	650.6
598.917	675.2
599.327	671.4
599.736	671.4
600.146	681.2
600.556	673.2
600.988	682.2
601.398	667.8
601.808	681.6
602.219	659.6
602.629	662.6
603.039	674
603.45	694.4
603.86	671.4
604.271	694
604.703	675.8
605.114	664.6
605.525	675
605.935	673.4
606.346	695.8
606.757	675.8
607.168	678.2
607.579	663.2
607.99	688.8
608.402	669.2
608.813	676.8
609.224	668.6
609.636	655.6
610.047	666.4
610.48	668.6
610.892	677.2
611.303	673.6
611.715	667.2
612.127	653.8
612.539	657.8
612.95	664.6
613.362	650.6
613.774	649.6
614.186	665
614.599	667.2
615.011	679.8
615.423	676.8
615.835	660
616.248	658.2
616.66	667.2
617.073	658.8
617.485	661.6
617.898	672.4
618.311	668.6
618.723	661.6
619.136	702.2
619.549	682.4
619.962	699
620.375	663.4
620.788	669
621.201	667
621.614	668
622.028	660.6
622.441	673.8
622.854	687
623.268	664
623.681	670.4
624.095	666
624.509	676.8
624.922	672.6
625.336	650.6
625.728	669
626.142	669.4
626.556	688.4
626.97	673.4
627.384	665.2
627.799	669.4
628.213	683.2
628.627	660.6
629.041	667.2
629.456	673.6
629.87	670.2
630.285	681.8
630.699	684.2
631.093	668.2
631.507	676
631.922	670.8
632.337	687
632.752	661.2
633.167	664.8
633.582	663
633.997	657.4
634.412	656.4
634.806	668
635.221	647.4
635.637	681.8
636.052	649.6
636.468	674
636.883	687.2
637.299	666.4
637.715	647.6
638.109	663.2
638.525	650.6
638.941	685.6
639.357	675.8
639.773	679.4
640.189	667.2
640.584	661.2
641	665.8
641.416	656.2
641.832	662
642.249	674.8
642.665	663.8
643.06	673
643.477	677.4
643.894	652.6
644.31	663.6
644.727	667.8
645.123	662
645.54	659.6
645.957	666.6
646.374	680.2
646.77	669.4
647.187	698.6
647.604	670.6
648.021	647.2
648.439	656.8
648.835	671.8
649.252	672.4
649.67	665.2
650.088	670.4
650.484	669
650.902	677.2
651.32	680.6
651.738	666.6
652.134	671
652.552	692.8
652.971	668.8
653.389	666.2
653.786	675.6
654.204	682.6
654.622	651.8
655.019	671.6
655.438	670.8
655.857	662
656.275	673.8
656.673	659
657.091	751.8
657.51	657.2
657.908	681.8
658.327	679.8
658.746	654.4
659.144	665
659.563	680.6
659.982	667.2
660.38	652.4
660.8	673
661.219	683
661.617	670.8
662.037	663.2
662.457	687.2
662.855	663.4
663.275	698.4
663.695	668.4
664.094	670
664.514	670.8
664.934	657.2
665.333	682.6
665.753	665.4
666.152	658.2
666.572	651.6
666.993	678
667.392	661
667.812	661
668.212	665.6
668.632	675.6
669.053	655
669.453	669.2
669.874	669
670.273	666.4
670.694	659.4
671.116	678
671.515	673.2
671.937	656.2
672.337	654.4
672.758	658.8
673.158	673.2
673.58	655.8
673.98	673.4
674.402	679.6
674.824	665.4
675.224	661.8
675.646	653.4
676.047	654
676.469	664.4
676.869	678.4
677.292	667.6
677.693	669.4
678.115	672
678.516	669.4
678.939	666.4
679.34	661
679.762	684.2
680.164	671.8
680.586	661.6
680.988	669.8
681.411	695.8
681.812	663.2
682.236	658
682.637	655
683.061	659.4
683.462	671.4
683.864	662.6
684.288	680
684.69	649.4
685.114	669.6
685.516	679
685.94	658.6
686.342	680.6
686.766	650.2
687.168	658.8
687.571	678.6
687.995	663.6
688.398	650.8
688.822	660.8
689.225	683.6
689.628	685.4
690.052	652.8
690.456	670.2
690.88	667
691.284	656
691.687	673.2
692.112	651
692.515	662.2
692.919	660
693.344	666.2
693.747	664.6
694.173	664.8
694.577	678.4
694.98	672.4
695.406	663.8
695.81	671.2
696.214	664.8
696.64	669
697.044	672.6
697.448	669.2
697.874	663.4
698.279	656.8
698.684	655.6
699.11	652.6
699.514	664.2
699.919	663.6
700.324	662.4
700.75	660.8
701.156	661.2
701.561	679
701.987	666.6
702.393	674.8
702.798	686
703.203	666.2
703.63	655.2
704.036	662
704.442	670.6
704.847	657.8
705.274	661
705.68	672.2
706.086	682.6
706.492	657.2
706.92	667.8
707.326	681.6
707.732	660.8
708.139	661.2
708.545	650.4
708.973	655
709.38	662.4
709.786	658.4
710.193	682.6
710.6	669.6
711.028	656.6
711.435	669.6
711.842	664
712.249	666.4
712.656	664.8
713.064	674.8
713.492	654.6
713.9	656.6
714.307	668.6
714.715	665
715.123	671
715.53	679
715.938	685.6
716.367	662.2
716.775	666.6
717.184	658.2
717.592	670.2
718	685.8
718.408	690.8
718.816	712
719.225	664.4
719.633	673.6
720.042	655.6
720.472	659.6
720.881	688
721.29	668.4
721.699	653.6
722.108	669.4
722.517	668.6
722.926	665.4
723.335	687.8
723.744	665.2
724.154	671
724.563	673.6
724.973	671.8
725.382	670.2
725.792	669.2
726.202	653.8
726.612	684
727.022	666.2
727.432	663.6
779.813	666.6
780.223	705.6
780.634	660
781.044	655.8
781.454	667.2
781.865	684
782.276	655.2
782.686	677.4
783.097	662.2
783.508	667.2
783.919	667
784.33	674.6
784.741	680.6
785.152	656
785.563	649.2
785.974	650.2
786.386	672.6
786.776	656.2
787.188	662.6
787.599	650.8
788.011	668.8
788.423	664.6
788.835	648.4
789.247	650.2
789.659	658.2
790.071	654
790.483	714.6
790.874	658
791.286	671
791.699	656.2
792.111	664.4
792.524	658.2
792.937	662.4
793.349	649.4
793.741	654.6
794.154	657.8
794.567	674.6
794.98	663.6
795.393	641.6
795.785	683
796.198	656.2
796.612	666.4
797.026	666.6
797.439	647.2
797.831	659.2
798.245	649
798.659	656.6
799.073	654.8
799.487	646.6
799.88	659.6
800.294	660.6
800.708	666.8
801.123	660
801.516	682.8
801.93	648.8
802.345	653.8
802.76	664.2
803.153	677.4
803.568	678
803.983	668.2
804.377	669.2
804.792	654.6
805.207	652.4
805.601	663.8
806.016	701
806.432	655.8
806.826	700.4
807.242	682.8
807.658	671
808.052	658
808.468	663.6
808.884	648.6
809.279	654.2
809.695	681.2
810.111	681.4
810.506	664.2
810.922	676.6
811.339	664.2
811.734	670.4
812.151	660.6
812.546	650.4
812.963	655
813.38	668
813.776	656.2
814.193	698.2
814.589	653.4
815.006	657.4
815.402	653.2
815.82	657
816.237	659.6
816.633	668.6
817.051	648.6
817.448	657.4
817.866	652.2
818.262	683.6
818.68	663
819.077	660.2
819.495	662.6
819.892	706.4
820.311	653.4
820.708	656.4
821.127	650.8
821.524	666.8
821.943	665.2
822.34	671.8
822.759	656.8
823.157	659
823.576	676.2
823.974	665.8
824.393	766.2
824.791	649
825.189	645.4
825.609	655
826.007	653.8
826.427	650
826.826	656.8
827.246	662.2
827.644	650.8
828.043	668.8
828.463	654.4
828.862	664.4
829.261	676.4
829.682	640.8
830.081	667.8
830.502	652.4
830.901	665.6
831.301	645.8
831.722	646.6
832.121	660.8
832.521	653.8
832.943	666.2
833.342	656.4
833.742	650.8
834.164	654.8
834.564	643
834.965	661
835.386	655.6
835.787	661.4
836.188	649.8
836.588	665.8
837.01	663.2
837.411	648.8
837.812	668.6
838.213	656.2
838.636	648.4
839.037	735.4
839.438	661.2
839.84	654.6
840.263	665.6
840.664	653.4
841.066	654.4
841.468	655.8
841.891	656.8
842.293	667.6
842.695	663.6
843.098	666.2
843.5	650.6
843.902	667.2
844.326	660.2
844.729	648.4
845.131	675
845.534	666.2
845.937	674.4
846.34	684.8
846.764	653.6
847.167	664.8
847.571	659.4
847.974	661.2
848.377	661.6
848.781	711.2
849.184	674.4
849.588	659.6
849.992	657.2
850.396	660.6
850.821	680.2
851.225	661.8
851.63	661.6
852.034	673.4
852.438	660.2
852.843	807.4
853.247	650
853.652	651.2
854.057	679
854.462	665.8
854.867	668.8
855.272	682.6
855.677	660.4
856.082	651.6
856.487	644.4
