#lambda/nm	C1
208.295	550
208.67	497.6
209.045	462.2
209.419	457.4
209.794	683.2
210.169	670.6
210.544	809
210.919	701.6
211.295	678.2
211.67	687.2
212.045	704.2
212.421	686.4
212.796	737.4
213.172	690
213.547	684.2
213.923	695
214.299	679.8
214.675	695.4
215.051	686.6
215.427	702.2
215.803	715.2
216.179	693.4
216.555	681.2
216.932	699.6
217.308	686.2
217.684	693
218.061	694.4
218.438	692.2
218.814	682.8
219.191	702.2
219.568	686.2
219.945	692.4
220.322	699.2
220.699	701.4
221.076	693.8
221.453	686.8
221.83	686
222.208	689
222.585	694.8
222.962	694
223.34	693.2
223.717	695
224.095	690
224.473	693.8
224.851	694
225.229	678.6
225.607	705
225.985	685.2
226.363	694.6
226.741	690.4
227.119	692
227.497	699.2
227.876	669.4
228.254	696
228.633	706
229.011	692.6
229.39	690.6
229.769	691.4
230.148	697.2
230.527	712.4
230.905	682.8
231.284	692
231.664	676
232.043	709.4
232.422	697.8
232.801	682.6
233.181	692
233.56	686.4
233.94	688.6
234.319	677.4
234.699	693.2
235.079	737.8
235.458	736.4
235.838	717.8
236.218	681.2
236.598	673.8
236.978	684.4
237.358	681.2
237.738	688.8
238.119	695.6
238.499	680.2
238.88	697.6
239.26	707.8
239.641	677.6
240.021	688.8
240.402	692
240.783	687.4
241.163	688.6
241.544	698
241.925	689
242.306	711.4
242.687	679.2
243.069	690
243.45	695
243.831	688.4
244.212	687
244.594	742
244.975	705.2
245.357	694.8
245.739	677
246.12	699
246.502	703.8
246.884	693
247.266	689.6
247.648	697.6
248.03	714.2
248.412	697.2
248.794	700.6
249.176	690.2
249.559	701.8
249.941	686.2
250.323	680.2
250.706	673.6
251.089	690.6
251.471	698.2
251.854	690
252.237	685.8
252.62	695.6
253.002	697.6
253.385	693.4
253.769	703
254.152	692.8
254.535	700.2
254.918	673.6
255.301	689.6
255.685	684.4
256.068	676.8
256.452	710.4
256.835	703.4
257.219	703.6
257.603	706.8
257.986	679.4
258.37	705
258.754	678.4
259.138	704.8
259.522	700.4
259.906	687.2
260.29	694.8
260.675	680.6
261.059	694
261.443	689
261.828	699
262.212	694.6
262.597	680.6
262.981	684.2
263.366	699.4
263.751	690.8
264.136	687.4
264.521	678.6
264.906	678
265.291	710
265.676	685.4
266.061	700
266.446	707.8
266.831	691.2
267.217	708.2
267.602	694
267.987	693
268.373	690.4
268.759	701.8
269.144	692.6
269.53	696.6
269.916	678.4
270.302	689.6
270.688	691.2
271.074	688
271.46	705.8
271.846	728.8
272.232	684.8
272.618	690.4
273.004	688.8
273.391	704.6
273.777	708.2
274.164	696.6
274.55	716.2
274.937	693.4
275.324	684.8
275.71	701.6
276.097	707.2
276.484	692
276.871	700.2
277.258	696.4
277.645	676.6
278.032	691
278.419	686.6
278.807	686.2
279.194	677.2
279.581	678.8
279.969	693.6
280.356	688
280.744	688.8
281.131	724.4
281.519	696.8
281.907	684
282.295	685.6
282.682	710.4
283.07	687.2
283.458	696.8
283.846	702.6
284.235	709.4
284.623	701.6
285.011	683.8
285.399	687.4
285.788	685.4
286.176	678.6
286.565	704.4
286.953	685.8
287.342	681.4
287.731	684.6
288.119	681.2
288.508	694.6
288.897	685.2
289.286	671.2
289.675	700.4
290.064	694.6
290.453	682
290.821	691
291.21	711
291.599	690.4
291.989	694.6
292.378	703.2
292.768	706.4
293.157	688.6
293.547	699.6
293.936	686.2
294.326	682.8
294.716	692.4
295.106	686
295.496	700.6
295.886	698.4
296.276	700
296.666	685.6
297.056	692.4
297.446	681
297.836	711.8
298.227	692.2
298.617	694.8
299.008	708.2
299.398	692
299.789	680.4
300.179	699.2
300.57	707.8
300.961	693
301.352	690.4
301.742	692
302.133	689.8
302.524	689.6
302.915	697.8
303.307	686.6
303.698	706
304.089	695.4
304.48	695.4
304.872	703.6
305.263	687.2
305.655	684.6
306.046	703.8
306.438	707.6
306.829	683.4
307.221	705.4
307.613	700.4
308.005	701.2
308.397	706.2
308.789	720.8
309.181	725.4
309.573	708
309.965	704.6
310.357	695.2
310.749	709.4
311.142	687.2
311.534	690
311.926	701.8
312.319	685.4
312.711	684.8
313.104	712.8
313.497	690.8
313.889	734.4
314.282	717
314.675	719.2
315.068	707.4
315.461	698.8
315.854	732.8
316.247	705.6
316.64	694
317.033	702.6
317.405	700.4
317.798	700
318.192	699.4
318.585	684.2
318.979	704.6
319.372	689.2
319.766	691
320.16	713.6
320.553	715.2
320.947	725
321.341	685.2
321.735	701.4
322.129	677.2
322.523	721.8
322.917	682.6
323.311	700.6
323.705	699.8
324.099	704.8
324.494	719.6
324.888	714.6
325.282	690.8
325.677	712.8
326.071	706.4
326.466	709.4
326.861	705.4
327.255	709.8
327.65	711.6
328.045	715.6
328.44	695.6
328.835	700.6
329.23	681.8
329.625	723.6
330.02	685.2
330.415	712.2
330.81	693.8
331.206	693.4
331.601	692.8
331.996	698.4
332.37	720.6
332.766	685.4
333.161	714.8
333.557	692.8
333.953	705.4
334.348	1090.8
334.744	691.6
335.14	692.4
335.536	691
335.932	707.6
336.328	699.2
336.724	707.4
337.12	695.6
337.516	703.6
337.913	698.2
338.309	710
338.705	700.2
339.102	712.8
339.498	694
339.895	712.6
340.291	684
340.688	703.4
341.085	689
341.481	699.8
341.878	699
342.275	711
342.672	688.2
343.069	693.2
343.466	684.4
343.842	700.2
344.239	690.8
344.636	693.6
345.033	682.6
345.431	685.4
345.828	691.8
346.225	685.6
346.623	740.8
347.02	702.2
347.418	705.8
347.816	715.2
348.213	684.6
348.611	699.6
349.009	690.8
349.407	714.6
349.805	679.6
350.203	674.8
350.601	711.4
350.999	686.2
351.397	799.6
351.795	685.2
352.193	696.2
352.57	700.2
352.969	709.4
353.367	686.8
353.766	687
354.164	697
354.563	704.6
354.961	694.4
355.36	688.6
355.759	692.8
356.158	695.8
356.557	676.4
356.956	687.8
357.355	673.2
357.754	696.2
358.153	701.4
358.552	728
358.951	686.2
359.35	709
359.75	682.2
360.149	687.6
360.527	681.6
360.926	685
361.326	688.2
361.726	688
362.125	678.6
362.525	700.4
362.925	686.2
363.325	687.4
363.724	697.6
364.124	688
364.524	679.8
364.924	685.4
365.324	702.8
365.725	669
366.125	689.8
366.525	686
366.904	676
367.304	656.6
367.705	709
368.105	695.4
368.506	690.6
368.906	686.6
369.307	687.2
369.708	689.2
370.108	673.2
370.509	693.8
370.91	678.6
371.311	687.8
371.712	678.4
372.113	682.4
372.514	672.6
372.894	690.2
373.295	683.2
373.696	698.2
374.097	695.6
374.499	722.4
374.9	692.6
375.301	687.6
375.703	696
376.105	669.4
376.506	690.6
376.908	690
377.309	695.2
377.711	689.4
378.113	684.6
378.493	692.6
378.895	682.4
379.297	699.6
379.699	671.2
380.102	687
380.504	687.6
380.906	682.4
381.308	715.6
381.71	686.8
382.113	706.4
382.515	685.8
382.918	691.4
383.299	689.6
383.701	690.8
384.104	682
384.507	661.2
384.909	674.8
385.312	672
385.715	671.4
386.118	673.8
386.521	672
386.924	693.4
387.327	670
387.709	668
388.112	664
388.515	688
388.918	674.8
389.322	679.6
389.725	676.8
390.129	703.8
390.532	689.2
390.936	680
391.339	667.2
391.743	686.8
392.125	679
392.529	694.2
392.933	701
393.337	683.6
393.74	686.6
394.144	683.4
394.548	678
394.953	686.6
395.357	685.8
395.761	687.2
396.144	691.2
396.548	692
396.952	680.8
397.357	676.2
397.761	679.4
398.166	688.4
398.57	684.6
398.975	666.4
399.379	688
399.763	738.4
400.168	682.4
400.572	681
400.977	680.6
401.382	701.2
401.787	695
402.192	704.4
402.597	707.4
403.002	674.6
403.386	693.6
403.791	694.2
404.197	673.8
404.602	689.4
405.007	688.2
405.413	683.2
405.818	694.8
406.224	681
406.608	688
407.014	678.4
407.42	702.6
407.825	680.2
408.231	692
408.637	698.4
409.043	702.6
409.449	688.6
409.834	679.8
410.24	685.6
410.646	703.4
411.052	693.2
411.458	695.8
411.865	699.6
412.271	702.6
412.677	682.4
413.062	685.2
413.469	677.2
413.875	722
414.282	701
414.689	684
415.095	698.4
415.502	677.8
415.888	684.4
416.294	671
416.701	736.2
417.108	677.4
417.515	700.4
417.923	683.6
418.33	710.6
418.715	696.8
419.123	683.6
419.53	684.6
419.937	694.4
420.345	711.2
420.752	677.6
421.16	704.4
421.546	693.4
421.953	692.8
422.361	679.4
422.769	689
423.177	677.6
423.585	709.8
423.992	705
424.379	707
424.787	692.2
425.195	714.4
425.603	694.6
426.011	705.2
426.419	704.6
426.806	691.2
427.214	700.8
427.623	704.6
428.031	711.8
428.44	682
428.848	704.8
429.235	709.6
429.644	697.6
430.053	695.2
430.461	712.4
430.87	723
431.279	703.4
431.666	686.2
432.075	690.4
432.484	687.6
432.893	692.6
433.302	715.4
433.711	756.8
434.099	708
434.508	694.8
434.918	683
435.327	693.2
435.737	705.8
436.125	700
436.534	701.6
436.944	692.2
437.353	704.6
437.763	720.6
438.173	683.8
438.561	714.4
438.971	678
439.381	707.2
439.791	696.6
440.201	685.4
440.589	707.6
440.999	710.4
441.409	712.2
441.819	693.8
442.23	719.4
442.619	716.6
443.029	709.6
443.439	706.6
443.85	727.2
444.26	727.2
444.649	710.8
445.06	718
445.471	702
445.881	718.2
446.292	736.8
446.682	729.6
447.092	698
447.503	783.6
447.914	709.8
448.325	718.2
448.715	713.8
449.126	702.4
449.537	704.2
449.948	714
450.338	713
450.75	719.4
451.161	722.4
451.572	725
451.984	707.6
452.374	699.6
452.786	708.6
453.197	717
453.609	730.2
453.999	699.2
454.411	709.4
454.823	731.8
455.235	723.4
455.647	711.8
456.037	713.6
456.449	707.8
456.862	714.8
457.274	717.2
457.665	699.2
458.077	720.6
458.489	755.4
458.902	711.8
459.293	721.4
459.705	720.8
460.118	711.4
460.53	717.4
460.921	720.8
461.334	726.4
461.747	715.2
462.16	732.4
462.551	740.4
462.964	724.8
463.377	708.2
463.79	713.2
464.182	723.6
464.595	716.8
465.008	722.4
465.421	722.4
465.813	727.2
466.226	726.4
466.64	722.6
467.053	770.4
467.445	730.6
467.859	743.8
468.272	714.6
468.686	725.6
469.078	710.2
469.492	705.6
469.906	719.2
470.298	726.2
470.712	710.4
471.126	778.4
471.54	706.2
471.933	709.8
472.347	713
472.761	712.6
473.175	696
473.568	705.6
473.982	698.8
474.397	711.2
474.79	707.8
475.204	725.6
475.619	711.8
476.033	716.8
476.426	716.6
476.841	708.2
477.256	747.2
477.649	710
478.064	704.6
478.479	699.6
478.872	706.6
479.287	694.2
479.702	708.8
480.118	712.4
480.511	711.6
480.927	712
481.342	709.8
481.736	714
482.151	700.6
482.566	721.4
482.96	716.4
483.376	712
483.792	708.6
484.186	718.4
484.602	706.2
485.017	712.8
485.412	709
485.827	720.2
486.243	707
486.638	737
487.054	708.8
487.47	728.6
487.865	707
488.281	709
488.697	704.8
489.092	702
489.508	696.6
489.925	715.8
490.32	693.6
490.736	713.6
491.153	701.6
491.548	705
491.964	710
492.381	699.2
492.776	707.2
493.193	714.2
493.61	723.4
494.006	701.8
494.422	710.4
494.84	689.6
495.235	716.2
495.652	706.6
496.069	706.6
496.465	690.6
496.883	703.4
497.3	738.4
497.696	701.2
498.113	713.4
498.509	697
498.927	686.6
499.344	698.2
499.741	702.2
500.158	709.8
500.576	714.8
500.973	702.8
501.39	693.8
501.787	700.4
502.205	704.6
502.623	688.8
503.02	682.6
503.438	683.6
503.856	701
504.253	692.4
504.671	701
505.068	693.2
505.486	692.8
505.905	722
506.302	700.8
506.72	707.8
507.118	688
507.536	701.6
507.955	694
508.352	698.8
508.771	708.4
509.169	713.2
509.587	689.6
510.006	699.8
510.404	680.6
510.823	692.8
511.221	699.8
511.64	694.2
512.038	711.8
512.457	692.2
512.877	693.6
513.275	696
513.694	689.6
514.092	688.8
514.512	713
514.91	683.8
515.33	692.4
515.749	697.6
516.148	695.4
516.568	702.8
516.966	702.8
517.386	691
517.785	692.2
518.205	687.4
518.603	686.2
519.024	677.4
519.444	697.2
519.843	704
520.263	703.2
520.662	692
521.082	690.6
521.481	689
521.902	695.4
522.301	691.4
522.722	689.4
523.121	686.6
523.542	684.8
523.963	683.4
524.362	694.2
524.783	696.6
525.183	695.2
525.604	699.8
526.003	685.6
526.425	681.8
526.824	699.4
527.246	693.2
527.646	701
528.067	686.2
528.467	691.8
528.888	707.6
529.289	678.2
529.71	697
530.11	685
530.532	684.4
530.932	679.2
531.354	679.2
531.755	733.2
532.176	695
532.577	682.6
532.999	691.4
533.4	684.2
533.822	697
534.223	682.4
534.645	688.6
535.046	687.4
535.468	682.8
535.869	707.8
536.292	674.2
536.693	722.6
537.115	688.2
537.516	685
537.939	677.4
538.34	698.4
538.742	697
539.165	687.6
539.566	677.8
539.989	674.6
540.391	673.2
540.814	679.6
541.216	680
541.639	678
542.041	700
542.464	675.2
542.866	677.4
543.268	661.4
543.691	689.2
544.093	689.2
544.517	711
544.919	673.4
545.343	703.4
545.745	676.6
546.147	680
546.571	681.6
546.974	675
547.398	679.8
547.8	699
548.224	676.4
548.627	674.6
549.03	689.4
549.454	682.6
549.857	678.6
550.281	665.2
550.684	680
551.087	689.6
551.512	678.4
551.915	686.4
552.34	683.6
552.743	669.6
553.146	680
553.571	680.6
553.975	705.4
554.399	669
554.803	741.2
555.207	675.4
555.632	667.2
556.036	686.4
556.461	664.8
556.865	674.4
557.268	670.8
557.694	677
558.098	692
558.502	687.6
558.927	676
559.332	672
559.736	681.6
560.162	676.6
560.566	673.4
560.992	688
561.396	681
561.801	676
562.227	682
562.631	675.8
563.036	681
563.462	689.6
563.867	677.2
564.272	668.8
564.698	671.8
565.103	668
565.508	704
565.935	677.4
566.34	673.2
566.745	695.4
567.172	674.4
567.577	705.4
567.982	693.2
568.409	684.4
568.815	667
569.22	678
569.626	688
570.053	663.8
570.459	675.4
570.865	686.6
571.292	677.6
571.698	679.6
572.104	665.8
572.531	669.8
572.937	686.6
573.343	676
573.75	673.2
574.177	673.2
574.583	686
574.99	668.2
575.396	675.2
575.824	668.8
576.231	669.2
576.637	663.4
577.065	702.8
577.472	671
577.879	671.4
578.286	686.2
578.714	658.8
579.121	674.6
579.528	674.8
579.935	679.8
580.364	675
580.771	663.4
581.178	663.4
581.585	680.2
582.014	674.2
582.421	663.2
582.829	673
583.236	680
583.644	663.4
584.073	667.6
584.481	670
584.889	670
585.296	674.6
585.726	671.2
586.134	666.8
586.542	666.2
586.95	689.8
587.358	661.2
587.787	683
588.196	653
588.604	663.4
589.012	664
589.421	669.2
589.851	668.8
590.259	680.8
590.668	674.8
591.076	703.8
591.485	671.8
591.894	674
592.324	684.6
592.733	681.4
593.142	652.8
593.551	664.6
593.96	675.2
594.369	649.2
594.8	658
595.209	664.8
595.618	650.2
596.028	664.8
596.437	661.2
596.847	672
597.256	671.8
597.687	665.8
598.097	671
598.507	659.8
598.917	673.4
599.327	682.6
599.736	672.8
600.146	680
600.556	672.2
600.988	682.4
601.398	665.4
601.808	687
602.219	658.4
602.629	681
603.039	667.4
603.45	708.6
603.86	666
604.271	682.6
604.703	663.4
605.114	666.8
605.525	679.6
605.935	671.4
606.346	696
606.757	671
607.168	672.4
607.579	674.4
607.99	690.8
608.402	668.8
608.813	670.8
609.224	668.4
609.636	653.4
610.047	660.8
610.48	672.2
610.892	683.4
611.303	688.4
611.715	668
612.127	663.4
612.539	676
612.95	673.8
613.362	655.8
613.774	660
614.186	658.8
614.599	665.8
615.011	684.2
615.423	661.4
615.835	668.2
616.248	666
616.66	674.2
617.073	660.4
617.485	664
617.898	682.4
618.311	665.8
618.723	674.6
619.136	704.4
619.549	682.6
619.962	692
620.375	662.2
620.788	687.2
621.201	658.2
621.614	678.2
622.028	666.6
622.441	674
622.854	681
623.268	663.4
623.681	676.4
624.095	662.2
624.509	676
624.922	673
625.336	652
625.728	666
626.142	676.2
626.556	695.8
626.97	673.2
627.384	666.2
627.799	669
628.213	675.8
628.627	672.6
629.041	663.4
629.456	663.6
629.87	671.2
630.285	677.6
630.699	686.4
631.093	668.8
631.507	673.8
631.922	666.4
632.337	684
632.752	660.8
633.167	665.6
633.582	670.2
633.997	663.8
634.412	665.8
634.806	676.2
635.221	657
635.637	686.4
636.052	650.6
636.468	680.2
636.883	693.8
637.299	667.2
637.715	652
638.109	659.2
638.525	654.4
638.941	685
639.357	671.2
639.773	678.6
640.189	660.8
640.584	669
641	667
641.416	661.6
641.832	664.8
642.249	665.2
642.665	655.6
643.06	673.6
643.477	672
643.894	648.8
644.31	664.2
644.727	672.4
645.123	671
645.54	664.4
645.957	673.2
646.374	685.6
646.77	674.8
647.187	707.6
647.604	669
648.021	654.4
648.439	662.2
648.835	673.4
649.252	670.4
649.67	663
650.088	674.4
650.484	680.8
650.902	677.4
651.32	679.6
651.738	662.4
652.134	671
652.552	695.4
652.971	688
653.389	668.6
653.786	686.8
654.204	692
654.622	658.8
655.019	667.6
655.438	675.4
655.857	676.6
656.275	672.2
656.673	664
657.091	749.4
657.51	664
657.908	683.4
658.327	689.2
658.746	656
659.144	665.8
659.563	684
659.982	670.4
660.38	655.4
660.8	661.8
661.219	678.2
661.617	671.6
662.037	659.2
662.457	689
662.855	649.6
663.275	701.8
663.695	676.4
664.094	659.2
664.514	670.4
664.934	660.8
665.333	676.8
665.753	660.6
666.152	665.2
666.572	661.2
666.993	685.6
667.392	663.4
667.812	661.8
668.212	665
668.632	677.8
669.053	664.2
669.453	671
669.874	670.2
670.273	678.2
670.694	663.8
671.116	676.8
671.515	682.8
671.937	673.2
672.337	660.4
672.758	663.6
673.158	676.8
673.58	660.6
673.98	666.8
674.402	682.6
674.824	663.6
675.224	667.6
675.646	660.2
676.047	654.6
676.469	667.2
676.869	678
677.292	662.8
677.693	667
678.115	657
678.516	668.6
678.939	671.6
679.34	659
679.762	685
680.164	674.2
680.586	655.6
680.988	662.8
681.411	694.2
681.812	667.8
682.236	658.6
682.637	659
683.061	655.6
683.462	664.6
683.864	659.4
684.288	675.2
684.69	652.6
685.114	680
685.516	671.4
685.94	660.6
686.342	674.6
686.766	655.4
687.168	658.4
687.571	677.8
687.995	671.2
688.398	654.8
688.822	663.6
689.225	684.4
689.628	687
690.052	674.4
690.456	680.6
690.88	664.8
691.284	654.6
691.687	678
692.112	655.4
692.515	667.4
692.919	665.8
693.344	662.4
693.747	668.8
694.173	653.4
694.577	681.4
694.98	663.4
695.406	661.6
695.81	670.4
696.214	671.6
696.64	665.6
697.044	659.2
697.448	672.6
697.874	665.8
698.279	655
698.684	651.8
699.11	656.8
699.514	663.4
699.919	657
700.324	655.6
700.75	667.8
701.156	658.4
701.561	681.8
701.987	671.8
702.393	669.4
702.798	682
703.203	668
703.63	669.4
704.036	664.2
704.442	668.6
704.847	664.6
705.274	662.4
705.68	666.4
706.086	672.8
706.492	656.2
706.92	656.2
707.326	668.6
707.732	666.4
708.139	647.2
708.545	647
708.973	659.6
709.38	664.2
709.786	651.2
710.193	687.8
710.6	661
711.028	651
711.435	653.8
711.842	663
712.249	659.8
712.656	665.2
713.064	674
713.492	651
713.9	655.4
714.307	663.4
714.715	666.4
715.123	671.4
715.53	673
715.938	673.4
716.367	661.8
716.775	663.2
717.184	662.4
717.592	654.6
718	681.6
718.408	704.6
718.816	722.6
719.225	667.8
719.633	674
720.042	665.2
720.472	655.6
720.881	687.2
721.29	667.2
721.699	645.4
722.108	666.8
722.517	667.4
722.926	660.6
723.335	679.8
723.744	670.4
724.154	662.4
724.563	665.8
724.973	664.2
725.382	659.4
725.792	659.8
726.202	656
726.612	689.4
727.022	665.6
727.432	662.6
779.813	656.2
780.223	706
780.634	663
781.044	659.8
781.454	658
781.865	682.2
782.276	650.6
782.686	673
783.097	662.2
783.508	660.6
783.919	666.2
784.33	677.6
784.741	681.2
785.152	664.8
785.563	651.4
785.974	653.4
786.386	671.6
786.776	662.8
787.188	667
787.599	658.6
788.011	669
788.423	668.8
788.835	655.8
789.247	656.6
789.659	651.6
790.071	661.6
790.483	707.8
790.874	658.2
791.286	673.8
791.699	665.4
792.111	670.6
792.524	671.2
792.937	667.4
793.349	661.4
793.741	663.8
794.154	652.6
794.567	683.8
794.98	662.8
795.393	650.8
795.785	677.6
796.198	650
796.612	664.2
797.026	651.2
797.439	643.8
797.831	660.2
798.245	651.6
798.659	650.6
799.073	655.8
799.487	651.4
799.88	664.4
800.294	664
800.708	666
801.123	666.2
801.516	682.8
801.93	650.2
802.345	647.6
802.76	660
803.153	680.8
803.568	669.4
803.983	670
804.377	672.6
804.792	647
805.207	643
805.601	660
806.016	699.2
806.432	652.6
806.826	699
807.242	677.2
807.658	661.4
808.052	654.6
808.468	651.4
808.884	654
809.279	660.2
809.695	676.8
810.111	686.8
810.506	660
810.922	682
811.339	646.2
811.734	676.6
812.151	664.6
812.546	650.4
812.963	656
813.38	662.4
813.776	659.6
814.193	687
814.589	655.8
815.006	658.8
815.402	646.4
815.82	655.8
816.237	663
816.633	665.4
817.051	648.8
817.448	664.8
817.866	650.2
818.262	682.6
818.68	650.8
819.077	654.8
819.495	664
819.892	706.4
820.311	657.4
820.708	650.2
821.127	658.8
821.524	676.6
821.943	664.6
822.34	681
822.759	662.2
823.157	664.8
823.576	677.8
823.974	680
824.393	789.4
824.791	660.8
825.189	658.6
825.609	654.4
826.007	658.8
826.427	648.4
826.826	658
827.246	670.6
827.644	643.4
828.043	684.8
828.463	658.6
828.862	670
829.261	667.2
829.682	648
830.081	670.2
830.502	657.6
830.901	660.4
831.301	655.2
831.722	639.2
832.121	661.2
832.521	652
832.943	664.6
833.342	656.4
833.742	650.2
834.164	655.2
834.564	645.2
834.965	658
835.386	661
835.787	650.8
836.188	661.6
836.588	660.2
837.01	655.6
837.411	654
837.812	669
838.213	666.4
838.636	655.4
839.037	738
839.438	663.2
839.84	654.8
840.263	675.4
840.664	667.8
841.066	658.8
841.468	663.2
841.891	659.6
842.293	670.4
842.695	672.2
843.098	674
843.5	657.2
843.902	670.2
844.326	661.8
844.729	658.8
845.131	678.2
845.534	657
845.937	677.8
846.34	682
846.764	651.8
847.167	665.8
847.571	653
847.974	654.6
848.377	647.6
848.781	709.8
849.184	676.4
849.588	655.4
849.992	652.4
850.396	660.6
850.821	679
851.225	658.4
851.63	657.8
852.034	672
852.438	652.4
852.843	706.2
853.247	644.6
853.652	654
854.057	674
854.462	667.6
854.867	653.2
855.272	692.4
855.677	668
856.082	650.8
856.487	655
