#lambda/nm	C1
208.295	548.4
208.67	495.6
209.045	459.6
209.419	453.8
209.794	688.6
210.169	665.6
210.544	801.6
210.919	696.2
211.295	671.6
211.67	697.6
212.045	685.6
212.421	681.6
212.796	728.6
213.172	689.2
213.547	686.2
213.923	692.6
214.299	669
214.675	693.8
215.051	692.4
215.427	705.6
215.803	712.4
216.179	692.6
216.555	687.6
216.932	695.8
217.308	694.2
217.684	688
218.061	687.4
218.438	691.4
218.814	685.2
219.191	692.4
219.568	683.6
219.945	680.6
220.322	691
220.699	701
221.076	696.2
221.453	690.8
221.83	687.2
222.208	682.8
222.585	688.8
222.962	697.2
223.34	700
223.717	681.6
224.095	689.6
224.473	684
224.851	686
225.229	674.4
225.607	705.6
225.985	677.2
226.363	688.2
226.741	688.8
227.119	682.2
227.497	700
227.876	674.6
228.254	695.6
228.633	702.6
229.011	689.6
229.39	692
229.769	686.8
230.148	703.6
230.527	710.4
230.905	685.2
231.284	688.8
231.664	682.4
232.043	702.2
232.422	690.8
232.801	683.4
233.181	695.2
233.56	692.4
233.94	689.2
234.319	675.2
234.699	689
235.079	741.8
235.458	737.8
235.838	712.2
236.218	682.6
236.598	684.8
236.978	683.8
237.358	685.6
237.738	690
238.119	698.2
238.499	678.8
238.88	694.6
239.26	717.2
239.641	673.8
240.021	684.2
240.402	694.4
240.783	683.4
241.163	683.6
241.544	698.6
241.925	687
242.306	712
242.687	683
243.069	691.6
243.45	694.4
243.831	678.2
244.212	695.8
244.594	731.4
244.975	700.8
245.357	690.2
245.739	688.8
246.12	703.8
246.502	709.4
246.884	686.6
247.266	692.4
247.648	699.4
248.03	719.6
248.412	697.6
248.794	697
249.176	679.8
249.559	709.6
249.941	679.2
250.323	677.8
250.706	681.6
251.089	700.6
251.471	694.2
251.854	695
252.237	689.2
252.62	704.4
253.002	692.8
253.385	696.8
253.769	709.6
254.152	689.8
254.535	708.8
254.918	685.6
255.301	684.8
255.685	689.8
256.068	687
256.452	719.6
256.835	706.8
257.219	696
257.603	705.6
257.986	675.6
258.37	702.8
258.754	674
259.138	693.2
259.522	699.6
259.906	685.4
260.29	694
260.675	684.2
261.059	697.4
261.443	680.4
261.828	697.4
262.212	701.6
262.597	678.2
262.981	698.6
263.366	701.8
263.751	691
264.136	681.8
264.521	690.6
264.906	680.8
265.291	696.4
265.676	680.4
266.061	692.8
266.446	709.8
266.831	695
267.217	709.4
267.602	683.6
267.987	691.4
268.373	689
268.759	698
269.144	692.6
269.53	690.6
269.916	683.6
270.302	688
270.688	693.2
271.074	699.8
271.46	709.2
271.846	726.2
272.232	695.4
272.618	690.8
273.004	695
273.391	706
273.777	708.4
274.164	697.4
274.55	715
274.937	700.2
275.324	686
275.71	703.2
276.097	697.6
276.484	690.2
276.871	690.6
277.258	708.6
277.645	676.2
278.032	684.8
278.419	686.2
278.807	698.8
279.194	686
279.581	684.4
279.969	702
280.356	698.6
280.744	692.2
281.131	718.6
281.519	704.2
281.907	685
282.295	685.4
282.682	711.4
283.07	696.2
283.458	706.6
283.846	709.6
284.235	715.2
284.623	702.2
285.011	679
285.399	694.2
285.788	688.2
286.176	680.4
286.565	710.4
286.953	691.6
287.342	692.2
287.731	694
288.119	682.2
288.508	683.8
288.897	684.8
289.286	684.2
289.675	692.2
290.064	694.8
290.453	680.6
290.821	688.8
291.21	715.6
291.599	679.6
291.989	687.8
292.378	702.6
292.768	712.8
293.157	691.6
293.547	697.2
293.936	679.8
294.326	684.8
294.716	682.6
295.106	683.2
295.496	698.6
295.886	702.2
296.276	691.8
296.666	689
297.056	686
297.446	671.8
297.836	713.8
298.227	694.8
298.617	695.4
299.008	713.8
299.398	686.4
299.789	691
300.179	703.2
300.57	708.6
300.961	683.2
301.352	686.6
301.742	709.4
302.133	695.2
302.524	689.4
302.915	691.4
303.307	688
303.698	701.4
304.089	699.8
304.48	691.4
304.872	692
305.263	694
305.655	692.8
306.046	694
306.438	700.6
306.829	684.8
307.221	709.4
307.613	696
308.005	710.6
308.397	708.4
308.789	716.4
309.181	722.4
309.573	719.6
309.965	704.6
310.357	697.6
310.749	707.8
311.142	693.4
311.534	683.2
311.926	701.4
312.319	699.8
312.711	677.2
313.104	709.6
313.497	690
313.889	737.2
314.282	710
314.675	726.8
315.068	698.2
315.461	705
315.854	728.6
316.247	707
316.64	685.2
317.033	700.6
317.405	703.4
317.798	691
318.192	700.6
318.585	696
318.979	700.4
319.372	689.4
319.766	682.4
320.16	705
320.553	710.4
320.947	719.6
321.341	683
321.735	690.4
322.129	681.8
322.523	728.2
322.917	682.4
323.311	698.6
323.705	702.4
324.099	694.8
324.494	714.4
324.888	708
325.282	699.2
325.677	713.2
326.071	709.2
326.466	704
326.861	691.2
327.255	712.2
327.65	716.2
328.045	720
328.44	689
328.835	691.8
329.23	687.8
329.625	716.4
330.02	687.6
330.415	712.2
330.81	690.6
331.206	690.2
331.601	692.4
331.996	708.2
332.37	724.6
332.766	688.2
333.161	716.8
333.557	687.6
333.953	691.6
334.348	1188.8
334.744	689.2
335.14	695.6
335.536	683.6
335.932	711.6
336.328	695
336.724	708.2
337.12	695.8
337.516	703.6
337.913	687.8
338.309	710.4
338.705	699.4
339.102	708.4
339.498	696
339.895	713.2
340.291	692
340.688	714.8
341.085	687
341.481	688.8
341.878	693.6
342.275	718
342.672	680.6
343.069	687.2
343.466	683.2
343.842	699.8
344.239	690.4
344.636	688
345.033	693.6
345.431	690.2
345.828	687.8
346.225	688.2
346.623	731.6
347.02	685.2
347.418	709.6
347.816	705.6
348.213	683.8
348.611	709.4
349.009	684
349.407	710
349.805	682
350.203	679.6
350.601	707.4
350.999	686.4
351.397	752.6
351.795	688.8
352.193	701.2
352.57	702.6
352.969	707.4
353.367	680.8
353.766	685.8
354.164	695.6
354.563	706
354.961	687.8
355.36	687.8
355.759	700.6
356.158	689.6
356.557	683.8
356.956	678.6
357.355	678.6
357.754	692.2
358.153	687.6
358.552	720.8
358.951	690.2
359.35	699.6
359.75	684
360.149	674.6
360.527	677.8
360.926	682.6
361.326	687.2
361.726	681
362.125	675
362.525	697
362.925	685.8
363.325	679.4
363.724	695
364.124	682.8
364.524	682.4
364.924	683.2
365.324	687.8
365.725	675.2
366.125	695.2
366.525	684.4
366.904	673.4
367.304	675
367.705	713.8
368.105	704.4
368.506	685.6
368.906	684.6
369.307	684.8
369.708	686.6
370.108	671.8
370.509	706
370.91	679
371.311	688.4
371.712	692
372.113	685.6
372.514	666.4
372.894	684.2
373.295	673.6
373.696	702
374.097	697.8
374.499	712.4
374.9	690.6
375.301	680
375.703	693.6
376.105	677.8
376.506	692
376.908	686.6
377.309	687.6
377.711	693.8
378.113	684.6
378.493	679.6
378.895	685.2
379.297	701.8
379.699	678
380.102	692
380.504	675.6
380.906	684.4
381.308	712.2
381.71	691
382.113	699.2
382.515	691.2
382.918	694.6
383.299	677.4
383.701	690.4
384.104	682
384.507	671.2
384.909	680.4
385.312	669
385.715	677.4
386.118	688.4
386.521	663.6
386.924	704
387.327	673.6
387.709	665.8
388.112	662.2
388.515	683.4
388.918	677.6
389.322	689.6
389.725	682.8
390.129	704.8
390.532	688.8
390.936	678
391.339	684
391.743	690.2
392.125	676.2
392.529	691.8
392.933	693.8
393.337	687.2
393.74	687.6
394.144	679.4
394.548	675
394.953	683.6
395.357	688.6
395.761	673.6
396.144	673.4
396.548	684.2
396.952	676.4
397.357	683.6
397.761	670.2
398.166	680.6
398.57	672
398.975	671.6
399.379	688.6
399.763	737.6
400.168	682
400.572	679
400.977	683.4
401.382	707
401.787	692.6
402.192	709.4
402.597	699.4
403.002	673.8
403.386	697.8
403.791	714.6
404.197	679.8
404.602	686.2
405.007	682.6
405.413	677.4
405.818	677.2
406.224	676.8
406.608	685.8
407.014	674.6
407.42	701.4
407.825	675.4
408.231	685.8
408.637	686
409.043	707.4
409.449	679.2
409.834	680.4
410.24	681.6
410.646	697.8
411.052	692
411.458	689.4
411.865	695.4
412.271	696.4
412.677	679.8
413.062	690.2
413.469	679.6
413.875	710.2
414.282	701.4
414.689	701
415.095	701.6
415.502	675.4
415.888	696.4
416.294	666.4
416.701	733.6
417.108	682.8
417.515	694
417.923	681.6
418.33	715.8
418.715	693
419.123	685
419.53	680.6
419.937	686.2
420.345	701.8
420.752	678.6
421.16	698.2
421.546	681
421.953	691.2
422.361	681.2
422.769	690.6
423.177	682.2
423.585	711.4
423.992	709.2
424.379	697.4
424.787	702
425.195	705.4
425.603	685.4
426.011	701
426.419	705.8
426.806	680
427.214	691.6
427.623	710.6
428.031	715.2
428.44	689.6
428.848	711
429.235	697.4
429.644	692
430.053	692.2
430.461	706.4
430.87	717.8
431.279	703.4
431.666	682
432.075	687.8
432.484	706.8
432.893	679
433.302	706.2
433.711	738.4
434.099	684.4
434.508	681.2
434.918	672.2
435.327	698.4
435.737	693.8
436.125	697.6
436.534	683.6
436.944	698.8
437.353	687.8
437.763	707
438.173	681.8
438.561	694.6
438.971	670.2
439.381	694.8
439.791	693.8
440.201	667.2
440.589	695
440.999	701.6
441.409	697.6
441.819	672.4
442.23	712
442.619	701.8
443.029	700.2
443.439	695
443.85	709.2
444.26	715.8
444.649	716
445.06	700.6
445.471	695
445.881	706
446.292	721.6
446.682	725
447.092	686.4
447.503	756
447.914	698.4
448.325	707.4
448.715	712.8
449.126	697
449.537	702
449.948	713.8
450.338	714.6
450.75	704.4
451.161	711.6
451.572	716
451.984	710.6
452.374	687.2
452.786	704.6
453.197	724.4
453.609	716.2
453.999	690.8
454.411	693.6
454.823	717.4
455.235	705.4
455.647	701
456.037	717.4
456.449	692
456.862	707.6
457.274	711.2
457.665	705.4
458.077	718.8
458.489	744.4
458.902	705
459.293	713.2
459.705	708.4
460.118	708
460.53	709.6
460.921	714
461.334	712.4
461.747	717
462.16	725.4
462.551	727.8
462.964	723
463.377	699.4
463.79	709.4
464.182	732.6
464.595	698
465.008	707.4
465.421	714.2
465.813	708.8
466.226	715
466.64	708.4
467.053	757.8
467.445	724
467.859	728.6
468.272	711.4
468.686	726.4
469.078	720.8
469.492	700.8
469.906	716.4
470.298	719
470.712	705
471.126	782.2
471.54	698.6
471.933	708.2
472.347	715.6
472.761	711.2
473.175	703.2
473.568	713
473.982	709.6
474.397	713.6
474.79	715.6
475.204	721.4
475.619	710.6
476.033	718
476.426	712.2
476.841	714.6
477.256	741.4
477.649	714
478.064	698.8
478.479	715.4
478.872	711.6
479.287	706.4
479.702	703.4
480.118	716.6
480.511	710
480.927	711.4
481.342	717.8
481.736	712.2
482.151	705.6
482.566	728.6
482.96	724.8
483.376	721.2
483.792	710.4
484.186	714.4
484.602	708.6
485.017	711.4
485.412	713.8
485.827	715.6
486.243	712.4
486.638	737.6
487.054	714
487.47	733.6
487.865	708.8
488.281	711.2
488.697	702.8
489.092	704.6
489.508	699.4
489.925	722.8
490.32	701
490.736	721.8
491.153	707.2
491.548	710.6
491.964	721.2
492.381	696.8
492.776	718.8
493.193	716.6
493.61	720.6
494.006	707.4
494.422	708.4
494.84	707.2
495.235	717.2
495.652	712.8
496.069	711.2
496.465	689.6
496.883	712.2
497.3	732.4
497.696	696.6
498.113	714
498.509	692.6
498.927	690
499.344	687.6
499.741	692.2
500.158	725
500.576	709
500.973	702.4
501.39	688.2
501.787	693.8
502.205	706.6
502.623	697.4
503.02	694.4
503.438	688.2
503.856	696.4
504.253	695.4
504.671	707
505.068	694.4
505.486	696.8
505.905	719.8
506.302	704
506.72	711.8
507.118	693.6
507.536	699.6
507.955	693
508.352	708.8
508.771	704.4
509.169	698.2
509.587	698.2
510.006	693.6
510.404	687
510.823	682.2
511.221	697.2
511.64	689.6
512.038	712.4
512.457	690
512.877	699.8
513.275	694
513.694	692.8
514.092	688.6
514.512	700.4
514.91	695.8
515.33	706.6
515.749	700.6
516.148	694.2
516.568	706.8
516.966	690.4
517.386	686.8
517.785	696.8
518.205	696.4
518.603	690.8
519.024	683.8
519.444	693.6
519.843	705.4
520.263	700.8
520.662	694
521.082	687.8
521.481	701.6
521.902	694.6
522.301	692.4
522.722	696.6
523.121	685.6
523.542	680.6
523.963	682.8
524.362	695.6
524.783	694.4
525.183	686.6
525.604	687
526.003	686.6
526.425	683.4
526.824	689.6
527.246	700
527.646	705.4
528.067	700.4
528.467	688.6
528.888	699.8
529.289	692.6
529.71	695.4
530.11	691.8
530.532	686.4
530.932	680.2
531.354	675.2
531.755	729.2
532.176	696.4
532.577	692.2
532.999	690.8
533.4	687
533.822	704.8
534.223	691.8
534.645	686.6
535.046	679.6
535.468	690.6
535.869	700.2
536.292	679.4
536.693	725.8
537.115	686.6
537.516	682.6
537.939	680.2
538.34	700.6
538.742	698.8
539.165	692
539.566	685.4
539.989	673.2
540.391	682.6
540.814	675.4
541.216	684.6
541.639	681.8
542.041	686
542.464	685.4
542.866	678.4
543.268	668.6
543.691	687.6
544.093	690
544.517	700.4
544.919	679.6
545.343	714.8
545.745	677.8
546.147	687.2
546.571	686
546.974	675.6
547.398	688.8
547.8	695
548.224	683.2
548.627	682.2
549.03	696.6
549.454	673.6
549.857	677.6
550.281	671
550.684	676.2
551.087	694
551.512	680.8
551.915	689.4
552.34	679.2
552.743	678.8
553.146	684
553.571	678
553.975	695.4
554.399	676
554.803	738
555.207	681.4
555.632	672.6
556.036	682.8
556.461	670.2
556.865	675
557.268	681
557.694	685.8
558.098	693
558.502	676.8
558.927	670.2
559.332	673.2
559.736	680.4
560.162	683.6
560.566	671.4
560.992	684.6
561.396	664
561.801	679.2
562.227	682.4
562.631	674.2
563.036	683.8
563.462	687.4
563.867	683
564.272	668.2
564.698	680.4
565.103	666.8
565.508	699.8
565.935	683.2
566.34	684.4
566.745	692.6
567.172	669.8
567.577	696
567.982	690.6
568.409	682
568.815	661.6
569.22	677.2
569.626	682
570.053	667.2
570.459	672
570.865	680.6
571.292	684.4
571.698	673.2
572.104	653.6
572.531	671.6
572.937	688.2
573.343	684
573.75	670.2
574.177	678.2
574.583	685.4
574.99	673.8
575.396	678
575.824	670.6
576.231	679.8
576.637	664.6
577.065	702
577.472	683.8
577.879	666.2
578.286	696
578.714	666.2
579.121	677.6
579.528	670.4
579.935	689.8
580.364	669.6
580.771	658.8
581.178	655.4
581.585	681.6
582.014	684
582.421	672.8
582.829	672
583.236	686.6
583.644	669.6
584.073	672.6
584.481	681.2
584.889	670.8
585.296	680.8
585.726	677.2
586.134	663.6
586.542	673.8
586.95	689.6
587.358	663.8
587.787	673.8
588.196	665.6
588.604	665.6
589.012	667.2
589.421	658.4
589.851	668.6
590.259	679.4
590.668	673
591.076	724.2
591.485	672.4
591.894	679.6
592.324	693.4
592.733	693.6
593.142	657
593.551	660.6
593.96	705
594.369	664.4
594.8	657.2
595.209	671.6
595.618	654.4
596.028	663
596.437	666.4
596.847	668.2
597.256	672.4
597.687	663.2
598.097	673.8
598.507	659.2
598.917	671.6
599.327	670
599.736	673.2
600.146	690
600.556	669.6
600.988	687.6
601.398	659.8
601.808	680.6
602.219	655.6
602.629	671.2
603.039	671.4
603.45	696
603.86	670
604.271	688.6
604.703	672.4
605.114	669.6
605.525	669
605.935	670.8
606.346	693.4
606.757	670.6
607.168	660.4
607.579	662.8
607.99	682.2
608.402	677.6
608.813	677.4
609.224	665.6
609.636	656.6
610.047	658.2
610.48	672.6
610.892	673.4
611.303	676.6
611.715	670.4
612.127	665.2
612.539	662.8
612.95	673.6
613.362	661
613.774	667.2
614.186	663.2
614.599	660.4
615.011	682
615.423	669
615.835	668.4
616.248	658.4
616.66	674.6
617.073	657.8
617.485	667
617.898	671.2
618.311	666.8
618.723	663.4
619.136	695.4
619.549	681.4
619.962	687.4
620.375	666.6
620.788	670.8
621.201	661.6
621.614	676.6
622.028	660.6
622.441	675.2
622.854	680
623.268	663.6
623.681	679.4
624.095	677.4
624.509	678.4
624.922	678.2
625.336	664
625.728	672.4
626.142	680.4
626.556	685.8
626.97	677.6
627.384	673.4
627.799	658.4
628.213	688.2
628.627	658.4
629.041	667.8
629.456	664.8
629.87	669.8
630.285	671.6
630.699	681.8
631.093	668.6
631.507	671.8
631.922	672.6
632.337	682
632.752	656.4
633.167	676.2
633.582	663.4
633.997	661.2
634.412	649.8
634.806	666.4
635.221	659.2
635.637	685.6
636.052	661.8
636.468	668.6
636.883	692
637.299	668.2
637.715	650.6
638.109	667.8
638.525	653.4
638.941	680.6
639.357	672
639.773	679
640.189	662.6
640.584	669.2
641	658.2
641.416	647.2
641.832	659.6
642.249	658.2
642.665	662.2
643.06	668.2
643.477	671
643.894	655.2
644.31	666.4
644.727	663.2
645.123	666.2
645.54	666
645.957	673.4
646.374	686.4
646.77	681.4
647.187	697
647.604	673.8
648.021	654.2
648.439	662.2
648.835	663.8
649.252	676.6
649.67	663.2
650.088	671.8
650.484	675.8
650.902	675.8
651.32	678.6
651.738	683.4
652.134	662
652.552	689.4
652.971	675
653.389	663.6
653.786	688
654.204	690.8
654.622	659
655.019	675
655.438	669.2
655.857	671
656.275	671
656.673	667.8
657.091	747.4
657.51	656
657.908	663
658.327	691.2
658.746	654.8
659.144	664.6
659.563	683.4
659.982	670.6
660.38	659
660.8	669.6
661.219	682.2
661.617	681.8
662.037	670.2
662.457	684.4
662.855	656.2
663.275	692
663.695	672.2
664.094	659.8
664.514	675.4
664.934	663.6
665.333	670.6
665.753	654.8
666.152	658
666.572	654.2
666.993	683.6
667.392	663.4
667.812	665.2
668.212	663.8
668.632	682.2
669.053	667
669.453	670.4
669.874	666
670.273	671.6
670.694	660.2
671.116	678.6
671.515	678.8
671.937	669.6
672.337	655.6
672.758	671.6
673.158	670
673.58	662.8
673.98	678.4
674.402	686
674.824	662.2
675.224	659.2
675.646	649.2
676.047	652.4
676.469	672
676.869	675.4
677.292	671.8
677.693	658.4
678.115	664.2
678.516	673.8
678.939	667.8
679.34	662.6
679.762	679.4
680.164	667.2
680.586	654.4
680.988	669
681.411	687.6
681.812	662.2
682.236	656.8
682.637	658.6
683.061	651.4
683.462	670.4
683.864	666.2
684.288	673
684.69	655.8
685.114	674
685.516	678
685.94	666.2
686.342	674.4
686.766	657.6
687.168	667
687.571	687.4
687.995	664.6
688.398	651.4
688.822	659.2
689.225	691.2
689.628	686.2
690.052	665.6
690.456	672.6
690.88	664.8
691.284	654.4
691.687	675.8
692.112	651.6
692.515	656.2
692.919	671.6
693.344	668.8
693.747	668.4
694.173	649.6
694.577	676.8
694.98	668.4
695.406	669.4
695.81	675.8
696.214	671.2
696.64	666.8
697.044	673.6
697.448	673.2
697.874	657.8
698.279	665.4
698.684	653
699.11	656.8
699.514	673.6
699.919	665.6
700.324	661.8
700.75	664.8
701.156	663.2
701.561	678.4
701.987	668.8
702.393	678.4
702.798	673.4
703.203	653.8
703.63	654
704.036	657.4
704.442	673.6
704.847	666
705.274	664.4
705.68	669.2
706.086	676
706.492	655.4
706.92	663
707.326	666.8
707.732	659.8
708.139	662.6
708.545	654.8
708.973	658.6
709.38	658.8
709.786	649.4
710.193	675.4
710.6	667.8
711.028	653.2
711.435	655.2
711.842	666
712.249	652
712.656	663.6
713.064	676
713.492	655.4
713.9	659.4
714.307	670.8
714.715	664
715.123	663.6
715.53	664.8
715.938	672.8
716.367	668
716.775	675.2
717.184	655
717.592	668
718	668.2
718.408	707
718.816	711.8
719.225	656
719.633	660.2
720.042	659.8
720.472	662.2
720.881	679
721.29	667
721.699	656.6
722.108	663.8
722.517	661.2
722.926	658
723.335	676
723.744	660
724.154	669.8
724.563	671.2
724.973	673
725.382	659.6
725.792	659.8
726.202	652.2
726.612	685.8
727.022	666
727.432	657.4
779.813	652
780.223	713
780.634	665.2
781.044	655.8
781.454	667
781.865	682.8
782.276	661
782.686	666.8
783.097	654.2
783.508	655.8
783.919	654.4
784.33	679.4
784.741	677.2
785.152	653
785.563	657
785.974	648.2
786.386	669
786.776	653.8
787.188	663.4
787.599	661.8
788.011	676.6
788.423	674.6
788.835	661.8
789.247	657
789.659	656.2
790.071	669.6
790.483	711.8
790.874	663.4
791.286	674.6
791.699	655
792.111	673.4
792.524	678.4
792.937	664.2
793.349	659.2
793.741	655
794.154	661
794.567	679.8
794.98	661.6
795.393	633.6
795.785	678
796.198	644.2
796.612	664.6
797.026	662
797.439	641.6
797.831	660.8
798.245	649.4
798.659	661.2
799.073	658
799.487	658
799.88	661.8
800.294	664
800.708	670.2
801.123	662.6
801.516	681.6
801.93	637.8
802.345	648.6
802.76	661.8
803.153	673.8
803.568	676.2
803.983	672.8
804.377	669.2
804.792	650.8
805.207	654.6
805.601	657.4
806.016	707.4
806.432	660.6
806.826	691
807.242	681
807.658	665.8
808.052	661.6
808.468	650.8
808.884	652
809.279	659.4
809.695	676.8
810.111	685.2
810.506	666
810.922	682
811.339	664
811.734	669.6
812.151	653.2
812.546	658.4
812.963	648.8
813.38	677.8
813.776	669.6
814.193	688.6
814.589	653
815.006	657.2
815.402	652.4
815.82	655
816.237	668.2
816.633	671.2
817.051	648.2
817.448	661.2
817.866	647
818.262	681.4
818.68	664.4
819.077	655.8
819.495	660.4
819.892	712.6
820.311	659.6
820.708	652
821.127	651.2
821.524	678
821.943	664
822.34	679.8
822.759	665.8
823.157	661
823.576	675.8
823.974	657.4
824.393	752.6
824.791	656.2
825.189	657.2
825.609	657
826.007	663.6
826.427	647
826.826	648.4
827.246	662.4
827.644	644.4
828.043	662
828.463	644.2
828.862	664.8
829.261	669.8
829.682	648.2
830.081	669.2
830.502	651.6
830.901	665.8
831.301	653.4
831.722	651.6
832.121	652.4
832.521	657.6
832.943	663.6
833.342	672.2
833.742	656
834.164	655.4
834.564	646.6
834.965	660
835.386	656.8
835.787	654.8
836.188	663
836.588	664.4
837.01	660
837.411	650.2
837.812	670.8
838.213	666.2
838.636	654.8
839.037	737.4
839.438	664.8
839.84	664.6
840.263	663
840.664	669.4
841.066	660.2
841.468	670
841.891	641.8
842.293	669.4
842.695	684
843.098	668.8
843.5	661.2
843.902	664.8
844.326	659.6
844.729	666.6
845.131	675
845.534	660.8
845.937	682.4
846.34	686.2
846.764	648.8
847.167	665.6
847.571	651.8
847.974	663
848.377	662.2
848.781	712.8
849.184	675.4
849.588	664.6
849.992	657.8
850.396	668.6
850.821	680.4
851.225	667.2
851.63	660
852.034	672.6
852.438	660.4
852.843	801.4
853.247	648.6
853.652	655.2
854.057	686.4
854.462	665
854.867	659.6
855.272	693.8
855.677	665
