#lambda/nm	C1
208.295	546.8
208.67	494
209.045	458.6
209.419	452.8
209.794	694.2
210.169	667.8
210.544	808.4
210.919	692.4
211.295	674.2
211.67	687.4
212.045	686.2
212.421	681.8
212.796	729.6
213.172	678.6
213.547	687
213.923	686.8
214.299	685.4
214.675	695
215.051	695
215.427	702.6
215.803	707.6
216.179	700.4
216.555	681.4
216.932	696.8
217.308	688.4
217.684	688.8
218.061	690.8
218.438	692.4
218.814	686.6
219.191	701.8
219.568	679.2
219.945	694.6
220.322	700
220.699	692.6
221.076	701
221.453	700.4
221.83	683.2
222.208	694.8
222.585	691.8
222.962	693
223.34	696.6
223.717	692.2
224.095	686
224.473	685.4
224.851	688.4
225.229	686.6
225.607	704.2
225.985	686.8
226.363	696.6
226.741	688.2
227.119	686.2
227.497	702
227.876	671.4
228.254	699
228.633	695.6
229.011	687.4
229.39	701.4
229.769	698
230.148	701.8
230.527	706.8
230.905	685.4
231.284	686.8
231.664	677.4
232.043	703.8
232.422	696
232.801	685
233.181	688.4
233.56	687.6
233.94	702
234.319	671.8
234.699	697
235.079	738.8
235.458	733.4
235.838	711.8
236.218	685
236.598	686.4
236.978	680
237.358	686.2
237.738	689.4
238.119	703
238.499	683.6
238.88	690.8
239.26	715.4
239.641	669.2
240.021	679.6
240.402	692.8
240.783	689.8
241.163	694
241.544	689.8
241.925	685.2
242.306	701.2
242.687	682.6
243.069	694.4
243.45	699.4
243.831	683.8
244.212	685.4
244.594	732.4
244.975	694.4
245.357	699
245.739	686.4
246.12	690.8
246.502	705.6
246.884	699.6
247.266	697.6
247.648	694.2
248.03	716.2
248.412	701.4
248.794	696
249.176	678.4
249.559	700.4
249.941	687.2
250.323	687.8
250.706	674.2
251.089	693.6
251.471	694.2
251.854	687.6
252.237	685.8
252.62	706.6
253.002	689.2
253.385	681.2
253.769	702.4
254.152	689.4
254.535	701.6
254.918	688.4
255.301	693
255.685	685
256.068	683.2
256.452	716
256.835	709.6
257.219	697.6
257.603	704.4
257.986	684.8
258.37	705.6
258.754	677
259.138	702.2
259.522	700.4
259.906	684.4
260.29	697.4
260.675	694.6
261.059	690.2
261.443	691.8
261.828	698.4
262.212	694.8
262.597	679
262.981	685.4
263.366	701.8
263.751	695.2
264.136	688.8
264.521	681.2
264.906	682.4
265.291	709.2
265.676	694.2
266.061	700.4
266.446	712.8
266.831	696.2
267.217	710.8
267.602	689.2
267.987	695
268.373	692
268.759	708.4
269.144	701
269.53	694.8
269.916	693.6
270.302	689.8
270.688	697.8
271.074	698.2
271.46	708
271.846	720.6
272.232	687.4
272.618	679.4
273.004	682
273.391	709.4
273.777	707
274.164	694
274.55	712
274.937	690
275.324	685
275.71	701.4
276.097	696
276.484	692.2
276.871	694.2
277.258	690.4
277.645	670.2
278.032	690.4
278.419	692.4
278.807	697.6
279.194	686.6
279.581	679
279.969	697.6
280.356	692
280.744	687.6
281.131	715.2
281.519	702.2
281.907	687.2
282.295	684
282.682	704.8
283.07	694.6
283.458	699
283.846	710
284.235	707.8
284.623	704.8
285.011	683.8
285.399	687.2
285.788	695
286.176	681.8
286.565	706.8
286.953	684.2
287.342	686.2
287.731	681
288.119	670
288.508	684.8
288.897	687
289.286	679.4
289.675	693.2
290.064	687.4
290.453	688.2
290.821	693.6
291.21	717.4
291.599	694.6
291.989	696.6
292.378	707.8
292.768	708.4
293.157	698.4
293.547	697.6
293.936	699.8
294.326	691.2
294.716	701.8
295.106	692.6
295.496	698.6
295.886	706
296.276	694.6
296.666	681
297.056	693
297.446	685
297.836	712
298.227	685.6
298.617	687
299.008	710.2
299.398	686.2
299.789	688.2
300.179	701.2
300.57	708.4
300.961	686
301.352	693.6
301.742	697
302.133	690.2
302.524	690.8
302.915	692.4
303.307	690.2
303.698	704.2
304.089	705
304.48	693
304.872	703.6
305.263	698.2
305.655	687.2
306.046	690.4
306.438	701.4
306.829	683.2
307.221	709.6
307.613	693.8
308.005	702.2
308.397	703.2
308.789	706.6
309.181	719.2
309.573	716.2
309.965	706.8
310.357	692.6
310.749	713.6
311.142	680.2
311.534	692.2
311.926	698.8
312.319	692.8
312.711	680.4
313.104	718.6
313.497	683
313.889	735.6
314.282	715
314.675	725.2
315.068	683.2
315.461	705
315.854	722.2
316.247	703.8
316.64	691.2
317.033	699
317.405	694.6
317.798	693.2
318.192	694
318.585	677.6
318.979	695.8
319.372	678
319.766	694.6
320.16	710
320.553	704.8
320.947	711.8
321.341	692
321.735	696.2
322.129	673.8
322.523	716.2
322.917	682.2
323.311	705
323.705	707.2
324.099	701.8
324.494	712.8
324.888	713.8
325.282	683.6
325.677	710.6
326.071	696.8
326.466	705.6
326.861	698.4
327.255	703.2
327.65	709.8
328.045	718.2
328.44	701.6
328.835	695.8
329.23	687
329.625	726
330.02	685.2
330.415	718.2
330.81	708.2
331.206	691.8
331.601	689.8
331.996	703.8
332.37	719.6
332.766	679.8
333.161	723.8
333.557	685.8
333.953	694
334.348	1190.2
334.744	693.8
335.14	681.2
335.536	686.6
335.932	710.8
336.328	694.6
336.724	706.6
337.12	691.6
337.516	697.2
337.913	696.4
338.309	710.4
338.705	702.2
339.102	710
339.498	684.4
339.895	710
340.291	682.4
340.688	712.2
341.085	686.6
341.481	696.6
341.878	687.4
342.275	711.4
342.672	686.2
343.069	694.6
343.466	678.6
343.842	700.4
344.239	689
344.636	696.6
345.033	680.8
345.431	687.8
345.828	700.4
346.225	687
346.623	742
347.02	699.6
347.418	697.8
347.816	708.8
348.213	678.6
348.611	689.2
349.009	686.6
349.407	710.8
349.805	677.2
350.203	683
350.601	711
350.999	685.2
351.397	759.6
351.795	693
352.193	701.8
352.57	703.8
352.969	711.2
353.367	686.6
353.766	690.2
354.164	693
354.563	705.8
354.961	692
355.36	689.2
355.759	693.6
356.158	681.4
356.557	679.8
356.956	677.6
357.355	676.4
357.754	698
358.153	698.4
358.552	723.8
358.951	692
359.35	711.8
359.75	692.6
360.149	682.6
360.527	675.4
360.926	669.6
361.326	696.4
361.726	684.6
362.125	684.6
362.525	710.6
362.925	684.2
363.325	686.4
363.724	703.8
364.124	683
364.524	677
364.924	689.2
365.324	701.4
365.725	666.6
366.125	695.2
366.525	689
366.904	674
367.304	669.2
367.705	706.8
368.105	707.2
368.506	693.2
368.906	692.8
369.307	690.6
369.708	695
370.108	671.6
370.509	692.6
370.91	681
371.311	691.4
371.712	689.4
372.113	688.4
372.514	669.4
372.894	687
373.295	679.8
373.696	701
374.097	697.8
374.499	720
374.9	688.6
375.301	684
375.703	692.6
376.105	683.6
376.506	691.4
376.908	690.6
377.309	696.4
377.711	694.4
378.113	684.8
378.493	679.2
378.895	675.8
379.297	695.4
379.699	665
380.102	691
380.504	681.6
380.906	676.6
381.308	711.4
381.71	676.8
382.113	701.6
382.515	688.2
382.918	686.8
383.299	684.2
383.701	698
384.104	690.2
384.507	667.8
384.909	684
385.312	673.4
385.715	676.2
386.118	689.2
386.521	671.6
386.924	695.6
387.327	678.4
387.709	669.4
388.112	670.2
388.515	678.8
388.918	677.4
389.322	686.6
389.725	680.2
390.129	703.6
390.532	681
390.936	675.2
391.339	670.4
391.743	682.2
392.125	682
392.529	695.8
392.933	698.2
393.337	680.8
393.74	685.4
394.144	681
394.548	677.8
394.953	687.8
395.357	690.6
395.761	684
396.144	685.4
396.548	683.2
396.952	691
397.357	681.2
397.761	681.6
398.166	678.8
398.57	681.4
398.975	676
399.379	682.6
399.763	743.2
400.168	685.8
400.572	688
400.977	677.4
401.382	710
401.787	688.8
402.192	713
402.597	696.4
403.002	674.4
403.386	691.2
403.791	704.4
404.197	679.6
404.602	678.8
405.007	681.2
405.413	678
405.818	683.4
406.224	673.2
406.608	683
407.014	676.4
407.42	696
407.825	682.2
408.231	690.8
408.637	690.8
409.043	695.2
409.449	682.4
409.834	675.6
410.24	689.2
410.646	703
411.052	692.4
411.458	690.6
411.865	687.2
412.271	691.6
412.677	679.8
413.062	695
413.469	678.6
413.875	718
414.282	709.4
414.689	695.2
415.095	692.2
415.502	677.2
415.888	680.6
416.294	664.8
416.701	739
417.108	673.2
417.515	691.4
417.923	686.2
418.33	708.2
418.715	692.8
419.123	691.4
419.53	677.2
419.937	692.6
420.345	707.4
420.752	685.4
421.16	711
421.546	677
421.953	691
422.361	670.8
422.769	689.4
423.177	673
423.585	710.2
423.992	705.2
424.379	704.2
424.787	703.8
425.195	712.6
425.603	687.2
426.011	692.2
426.419	710.8
426.806	693.2
427.214	695.8
427.623	703.4
428.031	701
428.44	692.6
428.848	711.6
429.235	711.2
429.644	699.2
430.053	690.2
430.461	707.6
430.87	719.8
431.279	697.4
431.666	682.4
432.075	697.6
432.484	696.6
432.893	693.8
433.302	718.6
433.711	742.6
434.099	700
434.508	692.6
434.918	688.2
435.327	699.6
435.737	692
436.125	689.8
436.534	702.4
436.944	699.2
437.353	708
437.763	719.8
438.173	687.2
438.561	705.6
438.971	679.8
439.381	695.6
439.791	696
440.201	676.4
440.589	696.2
440.999	708.8
441.409	700.8
441.819	694.6
442.23	713.8
442.619	707.4
443.029	701.8
443.439	703
443.85	722.6
444.26	727.6
444.649	721.6
445.06	708
445.471	689.6
445.881	695.2
446.292	724.8
446.682	734.6
447.092	686
447.503	773.2
447.914	712.2
448.325	708.2
448.715	712
449.126	704.4
449.537	700.6
449.948	717.2
450.338	718.2
450.75	714
451.161	709.6
451.572	718
451.984	709.8
452.374	691
452.786	710
453.197	710.2
453.609	715.8
453.999	699
454.411	703
454.823	722
455.235	726
455.647	717.6
456.037	713.8
456.449	693.4
456.862	710
457.274	711.2
457.665	705
458.077	722
458.489	751
458.902	711.2
459.293	717
459.705	712.2
460.118	711.6
460.53	714.6
460.921	704.6
461.334	721
461.747	709.2
462.16	730.4
462.551	728.4
462.964	720.8
463.377	694.6
463.79	713.8
464.182	721
464.595	707.4
465.008	719.2
465.421	729.4
465.813	707.8
466.226	708.2
466.64	708
467.053	765.8
467.445	738
467.859	737
468.272	716.8
468.686	724
469.078	711.2
469.492	703.6
469.906	714.4
470.298	722.2
470.712	724.6
471.126	776.2
471.54	704.6
471.933	710
472.347	709.8
472.761	707.2
473.175	705
473.568	703.8
473.982	704.8
474.397	719
474.79	712
475.204	717.4
475.619	708.2
476.033	715.8
476.426	707.8
476.841	713
477.256	737.4
477.649	705.8
478.064	697.2
478.479	704.4
478.872	703
479.287	686.6
479.702	702
480.118	704.2
480.511	710.6
480.927	702
481.342	702.2
481.736	715.4
482.151	698
482.566	723.2
482.96	710.6
483.376	712.6
483.792	699
484.186	700.4
484.602	706
485.017	700
485.412	703.6
485.827	703.8
486.243	716.2
486.638	732.2
487.054	715
487.47	716.4
487.865	703.2
488.281	701
488.697	700.8
489.092	698.6
489.508	700.4
489.925	711.4
490.32	691
490.736	717.6
491.153	718.6
491.548	705
491.964	721.2
492.381	690.4
492.776	708.6
493.193	709.4
493.61	722.6
494.006	714
494.422	713.8
494.84	692.6
495.235	710
495.652	704.2
496.069	697.8
496.465	691.6
496.883	703.8
497.3	734.8
497.696	705.2
498.113	707.2
498.509	689.6
498.927	700.2
499.344	685
499.741	692.8
500.158	714.4
500.576	716
500.973	700.4
501.39	689.6
501.787	689.8
502.205	700.2
502.623	696
503.02	682.8
503.438	694
503.856	691
504.253	704.4
504.671	696.2
505.068	698.2
505.486	696.8
505.905	725
506.302	699.8
506.72	711.4
507.118	683.2
507.536	698.6
507.955	697.6
508.352	700.4
508.771	707.2
509.169	700.2
509.587	692.6
510.006	697.2
510.404	685.6
510.823	686.6
511.221	684.4
511.64	686.2
512.038	709.6
512.457	689
512.877	696.4
513.275	692.8
513.694	692.6
514.092	690.8
514.512	699.2
514.91	691.8
515.33	687
515.749	693.4
516.148	698.8
516.568	694.2
516.966	690
517.386	680.8
517.785	690.6
518.205	695
518.603	679
519.024	690
519.444	692.6
519.843	703
520.263	706.2
520.662	699
521.082	689.2
521.481	695.2
521.902	678.8
522.301	693
522.722	694.6
523.121	683.4
523.542	687.6
523.963	688.6
524.362	684.6
524.783	686
525.183	680.2
525.604	690
526.003	676
526.425	673
526.824	689.6
527.246	690.8
527.646	689.4
528.067	683.4
528.467	692.4
528.888	687.4
529.289	688.6
529.71	688.4
530.11	684.2
530.532	678.2
530.932	680.6
531.354	670.6
531.755	722.6
532.176	702.2
532.577	682.6
532.999	691.2
533.4	675.8
533.822	696.4
534.223	680.8
534.645	682
535.046	680.2
535.468	691.6
535.869	700.6
536.292	684.6
536.693	723.6
537.115	687.8
537.516	681
537.939	687.2
538.34	706.8
538.742	693.2
539.165	681.8
539.566	684.6
539.989	679.4
540.391	687.2
540.814	686.4
541.216	689.4
541.639	694.2
542.041	698.2
542.464	674.6
542.866	678.4
543.268	671.8
543.691	681.8
544.093	690.4
544.517	708.2
544.919	663
545.343	708.8
545.745	672.6
546.147	680
546.571	670.4
546.974	673
547.398	688
547.8	694
548.224	679.2
548.627	674
549.03	687.4
549.454	672.4
549.857	667.4
550.281	671.6
550.684	668.2
551.087	693.6
551.512	683.6
551.915	679.2
552.34	686.6
552.743	671.6
553.146	683
553.571	674.2
553.975	697.8
554.399	677.6
554.803	733.2
555.207	675.4
555.632	671
556.036	689
556.461	672.8
556.865	685.2
557.268	679.8
557.694	676.8
558.098	684.4
558.502	682.4
558.927	672
559.332	675.6
559.736	673
560.162	684.8
560.566	677.8
560.992	683
561.396	670.4
561.801	673.2
562.227	684
562.631	679
563.036	681.8
563.462	685
563.867	684
564.272	674.6
564.698	680.2
565.103	671.2
565.508	701.4
565.935	678
566.34	671.8
566.745	683.6
567.172	671.8
567.577	700.8
567.982	687.4
568.409	686.8
568.815	672
569.22	669.4
569.626	691
570.053	655.8
570.459	677.4
570.865	692.4
571.292	675.2
571.698	682.2
572.104	671
572.531	671.4
572.937	688.8
573.343	677.6
573.75	680
574.177	684.6
574.583	679.4
574.99	683.2
575.396	684.2
575.824	677.6
576.231	672.2
576.637	671
577.065	705.8
577.472	670.4
577.879	672.6
578.286	692
578.714	667
579.121	669.2
579.528	675.6
579.935	688.2
580.364	679.8
580.771	667.8
581.178	666.8
581.585	677.2
582.014	683.2
582.421	666.8
582.829	666.6
583.236	686.8
583.644	671
584.073	675
584.481	672.6
584.889	668.4
585.296	673.2
585.726	672.2
586.134	665
586.542	668.6
586.95	689.4
587.358	654.2
587.787	673.6
588.196	655.2
588.604	669
589.012	673
589.421	660.8
589.851	663.2
590.259	669
590.668	663.6
591.076	706.4
591.485	659.8
591.894	672.2
592.324	689.4
592.733	682.4
593.142	654.6
593.551	672.8
593.96	681.8
594.369	661.6
594.8	670.8
595.209	677.2
595.618	653
596.028	665.8
596.437	660.6
596.847	670.8
597.256	677.8
597.687	677.2
598.097	669.6
598.507	652.2
598.917	667.4
599.327	679.8
599.736	672.2
600.146	684.6
600.556	675.8
600.988	686.2
601.398	670.4
601.808	675.8
602.219	654.8
602.629	671.6
603.039	665.8
603.45	703.6
603.86	670.6
604.271	691.2
604.703	669.8
605.114	670.6
605.525	677.2
605.935	681.4
606.346	689
606.757	674.6
607.168	672.6
607.579	667
607.99	688
608.402	679.6
608.813	673.4
609.224	664.2
609.636	663.8
610.047	657.4
610.48	674.4
610.892	681.4
611.303	683
611.715	673
612.127	662
612.539	667
612.95	675.2
613.362	659.8
613.774	651
614.186	661.6
614.599	654.4
615.011	684
615.423	666.6
615.835	668.8
616.248	662.2
616.66	666.2
617.073	658
617.485	671.2
617.898	679.4
618.311	664.6
618.723	670.8
619.136	700
619.549	676
619.962	693.8
620.375	667.4
620.788	673.4
621.201	659.6
621.614	682.4
622.028	673.2
622.441	672
622.854	690
623.268	662
623.681	675.8
624.095	670.8
624.509	679.8
624.922	669.8
625.336	655
625.728	674.4
626.142	675.6
626.556	687.6
626.97	670.2
627.384	663.6
627.799	665.2
628.213	670.6
628.627	666.8
629.041	663.8
629.456	663.4
629.87	668
630.285	676.4
630.699	683.2
631.093	665.8
631.507	676.8
631.922	658.6
632.337	686.2
632.752	655.8
633.167	669.2
633.582	656
633.997	664.6
634.412	652.8
634.806	662.6
635.221	647.8
635.637	678.4
636.052	655.8
636.468	676.2
636.883	681
637.299	659.8
637.715	652.4
638.109	666
638.525	655.6
638.941	689
639.357	674.4
639.773	685.4
640.189	663.6
640.584	663.4
641	681.4
641.416	653.4
641.832	670.8
642.249	657.6
642.665	668.6
643.06	671.8
643.477	676.6
643.894	657.4
644.31	676
644.727	660.8
645.123	666.6
645.54	668.6
645.957	671.8
646.374	681.8
646.77	665
647.187	702.2
647.604	671.4
648.021	650.4
648.439	659.8
648.835	671.6
649.252	660.8
649.67	660.8
650.088	668.6
650.484	664.4
650.902	669.2
651.32	680.4
651.738	659.2
652.134	673
652.552	684.6
652.971	674.4
653.389	668.6
653.786	692.8
654.204	696.8
654.622	662.6
655.019	667.8
655.438	668
655.857	666.8
656.275	665.2
656.673	660.4
657.091	752.2
657.51	666.8
657.908	676.8
658.327	682.8
658.746	656.8
659.144	666.6
659.563	676.2
659.982	677.2
660.38	648
660.8	668.2
661.219	675.8
661.617	675.2
662.037	675
662.457	680.2
662.855	653.2
663.275	698
663.695	667.4
664.094	668.2
664.514	667.6
664.934	657.6
665.333	679.4
665.753	655.4
666.152	659
666.572	659
666.993	679.8
667.392	661.8
667.812	663.2
668.212	664.4
668.632	676.2
669.053	653.6
669.453	675.2
669.874	673
670.273	667
670.694	657.6
671.116	672.4
671.515	679.2
671.937	668.4
672.337	661.2
672.758	665.6
673.158	672.6
673.58	660.6
673.98	669.8
674.402	678.4
674.824	659.8
675.224	661.6
675.646	656.6
676.047	655.2
676.469	669.2
676.869	670.6
677.292	665.8
677.693	655.4
678.115	656.4
678.516	671.8
678.939	669.8
679.34	665.4
679.762	679.2
680.164	676.6
680.586	658
680.988	666.6
681.411	694
681.812	664.4
682.236	657.2
682.637	659
683.061	655.2
683.462	668
683.864	671.4
684.288	668.8
684.69	662.4
685.114	677
685.516	678
685.94	659.2
686.342	676.2
686.766	658.2
687.168	662.2
687.571	684.6
687.995	663
688.398	658.8
688.822	653.8
689.225	686.6
689.628	692.4
690.052	659.4
690.456	664.8
690.88	666
691.284	647.2
691.687	674
692.112	650.2
692.515	654.2
692.919	657.8
693.344	668.4
693.747	654.6
694.173	664.6
694.577	681.4
694.98	664.8
695.406	660.6
695.81	666.4
696.214	660.6
696.64	675.6
697.044	659.6
697.448	674.8
697.874	670.4
698.279	671
698.684	650.4
699.11	660.6
699.514	666.4
699.919	663
700.324	648
700.75	668.2
701.156	664.4
701.561	681
701.987	669.8
702.393	674.6
702.798	680.6
703.203	665.8
703.63	659.2
704.036	661.2
704.442	665
704.847	657.2
705.274	662.8
705.68	674
706.086	676.8
706.492	651.2
706.92	662.6
707.326	671.2
707.732	658.4
708.139	656
708.545	654.2
708.973	663.2
709.38	658.6
709.786	655.4
710.193	676.8
710.6	672.4
711.028	651.6
711.435	660
711.842	668.4
712.249	667.6
712.656	664.8
713.064	680.4
713.492	654
713.9	662
714.307	679.6
714.715	660.8
715.123	669
715.53	675.4
715.938	673.4
716.367	661
716.775	661
717.184	649.2
717.592	663.2
718	670.4
718.408	698.2
718.816	709.6
719.225	671.6
719.633	655.2
720.042	659.4
720.472	659.4
720.881	688.6
721.29	661.2
721.699	664.2
722.108	663.8
722.517	667
722.926	654.8
723.335	679.2
723.744	659.8
724.154	665.4
724.563	670.6
724.973	669.4
725.382	658.4
725.792	666.2
726.202	659
726.612	678.8
727.022	661.8
727.432	653.4
779.813	658.2
780.223	710.6
780.634	662
781.044	658.6
781.454	669.6
781.865	672.4
782.276	655.2
782.686	663.2
783.097	660.8
783.508	650.2
783.919	670
784.33	679.6
784.741	674.6
785.152	655.4
785.563	645.8
785.974	646
786.386	686
786.776	655.8
787.188	652.2
787.599	647.4
788.011	666
788.423	663.4
788.835	666.8
789.247	646.8
789.659	656.6
790.071	658
790.483	714.4
790.874	658.4
791.286	671.2
791.699	667.8
792.111	658
792.524	684.2
792.937	660.6
793.349	654.6
793.741	653
794.154	656.8
794.567	683.6
794.98	667
795.393	654.2
795.785	681.8
796.198	662
796.612	662
797.026	660
797.439	646.8
797.831	654.4
798.245	646.8
798.659	659.2
799.073	657.6
799.487	661.6
799.88	660.8
800.294	662.6
800.708	663.6
801.123	658.4
801.516	691.6
801.93	648.8
802.345	643
802.76	664.2
803.153	669
803.568	668
803.983	660.2
804.377	666.6
804.792	648.8
805.207	646.6
805.601	660.6
806.016	694
806.432	655.6
806.826	698.2
807.242	677.8
807.658	669.2
808.052	665
808.468	657
808.884	649.8
809.279	668.4
809.695	671.6
810.111	685.4
810.506	668.4
810.922	686.8
811.339	654
811.734	668
812.151	654.4
812.546	659.4
812.963	655.4
813.38	659.4
813.776	651.6
814.193	691
814.589	660.2
815.006	664.2
815.402	650.2
815.82	659.6
816.237	665.2
816.633	661.2
817.051	653
817.448	662.4
817.866	652.2
818.262	682.6
818.68	657.8
819.077	656
819.495	663
819.892	708.4
820.311	652
820.708	653.4
821.127	661.6
821.524	674.8
821.943	669
822.34	685.2
822.759	664.6
823.157	667.8
823.576	679.8
823.974	676.8
824.393	797.4
824.791	663.6
825.189	662.8
825.609	660.6
826.007	658.8
826.427	658.8
826.826	662.6
827.246	663.8
827.644	644.4
828.043	670.8
828.463	656.6
828.862	670.8
829.261	667.2
829.682	642.8
830.081	669
830.502	653.2
830.901	667.8
831.301	654
831.722	641
832.121	658
832.521	646.4
832.943	652
833.342	663.8
833.742	648.2
834.164	659.4
834.564	647.6
834.965	665.6
835.386	657
835.787	655.8
836.188	665.4
836.588	660.8
837.01	653.2
837.411	655.6
837.812	672
838.213	664.4
838.636	646.6
839.037	739.4
839.438	667.8
839.84	667.4
840.263	665.6
840.664	661
841.066	661.4
841.468	662.2
841.891	659
842.293	673.2
842.695	658.8
843.098	671.6
843.5	651.4
843.902	668
844.326	665
844.729	658
845.131	684
845.534	666.2
845.937	676.4
846.34	681
846.764	656.8
847.167	667.8
847.571	646
847.974	664.2
848.377	665
848.781	710.8
849.184	670.8
849.588	655.4
849.992	658.8
850.396	666.2
850.821	682.2
851.225	669.8
851.63	656.2
852.034	680.2
852.438	661.4
852.843	796.2
853.247	648.6
853.652	646.6
854.057	679
854.462	668.6
854.867	658.2
855.272	690.6
855.677	666.4
856.082	661.4
856.487	652.4
856.893	660.2
857.298	656.6
