#lambda/nm	C1
208.295	549.8
208.67	497.8
209.045	455.8
209.419	458.6
209.794	694
210.169	671.2
210.544	818
210.919	705.2
211.295	687.6
211.67	695.8
212.045	695.8
212.421	682.2
212.796	735.2
213.172	686
213.547	689.6
213.923	689
214.299	684.4
214.675	698.4
215.051	691
215.427	700.4
215.803	714
216.179	690.8
216.555	687.4
216.932	701
217.308	691.4
217.684	689
218.061	698.2
218.438	695
218.814	681.4
219.191	688.2
219.568	673.4
219.945	686.6
220.322	701.6
220.699	696.8
221.076	700
221.453	696.8
221.83	684
222.208	692
222.585	693.8
222.962	694.8
223.34	701.4
223.717	701.6
224.095	698
224.473	698.2
224.851	686.2
225.229	671.2
225.607	707.6
225.985	669.8
226.363	689.4
226.741	695.4
227.119	685.4
227.497	710.2
227.876	678.8
228.254	698
228.633	704.2
229.011	693.6
229.39	691.4
229.769	699.4
230.148	702
230.527	717.4
230.905	682.2
231.284	688.4
231.664	689.6
232.043	706.2
232.422	698.6
232.801	685.2
233.181	698
233.56	694.2
233.94	684.2
234.319	677
234.699	683.6
235.079	730.4
235.458	730.8
235.838	708.8
236.218	681.4
236.598	684.6
236.978	684
237.358	684.4
237.738	687
238.119	705.6
238.499	685.6
238.88	690.8
239.26	705.4
239.641	681
240.021	692.4
240.402	684
240.783	682
241.163	692.2
241.544	686.6
241.925	691
242.306	705.2
242.687	681.8
243.069	694.4
243.45	702.8
243.831	680.6
244.212	689.2
244.594	736
244.975	692.8
245.357	695.6
245.739	684.6
246.12	693.8
246.502	697.4
246.884	689.6
247.266	694.2
247.648	702.2
248.03	720
248.412	697.8
248.794	691.4
249.176	692
249.559	702.6
249.941	683.4
250.323	683.8
250.706	688.4
251.089	693.2
251.471	696.8
251.854	693.2
252.237	690.4
252.62	705
253.002	694.4
253.385	689.8
253.769	710.2
254.152	693.2
254.535	697
254.918	671.6
255.301	680
255.685	688.2
256.068	684.8
256.452	719
256.835	703.6
257.219	694.6
257.603	710
257.986	683
258.37	699
258.754	678.8
259.138	698
259.522	696.4
259.906	695.2
260.29	700.8
260.675	687.8
261.059	692
261.443	685
261.828	697.2
262.212	705.2
262.597	684.4
262.981	679.4
263.366	698.4
263.751	699.2
264.136	680.4
264.521	685.4
264.906	673
265.291	705.2
265.676	682.4
266.061	699.2
266.446	705.2
266.831	690
267.217	713.4
267.602	687.6
267.987	694.4
268.373	696.2
268.759	712
269.144	692
269.53	694.4
269.916	685.4
270.302	690
270.688	699.4
271.074	692.8
271.46	713
271.846	736.4
272.232	687.2
272.618	691.4
273.004	692
273.391	696.4
273.777	705.2
274.164	696.4
274.55	706.2
274.937	685.6
275.324	690.8
275.71	701.4
276.097	701.4
276.484	678
276.871	689.6
277.258	698.6
277.645	669
278.032	685.4
278.419	686.8
278.807	689
279.194	680.6
279.581	679.2
279.969	688.6
280.356	695.4
280.744	693.2
281.131	717.6
281.519	704.4
281.907	691
282.295	680
282.682	702
283.07	695.6
283.458	702.2
283.846	705.4
284.235	708.6
284.623	704
285.011	688.4
285.399	691.6
285.788	694.2
286.176	682.8
286.565	712.8
286.953	685.4
287.342	691
287.731	685.4
288.119	691
288.508	690.8
288.897	698.2
289.286	683.2
289.675	697.6
290.064	709.8
290.453	691.8
290.821	689.2
291.21	703.4
291.599	690.4
291.989	695
292.378	705.2
292.768	714.8
293.157	700.8
293.547	703.2
293.936	693.8
294.326	693.6
294.716	699
295.106	690
295.496	702.8
295.886	706.2
296.276	687.8
296.666	688.6
297.056	686
297.446	685.8
297.836	714.4
298.227	697.2
298.617	696.4
299.008	697
299.398	688
299.789	690
300.179	706.4
300.57	705.2
300.961	689.4
301.352	685.4
301.742	706.8
302.133	694.6
302.524	695.4
302.915	698
303.307	683.8
303.698	696.4
304.089	707
304.48	698.4
304.872	700.4
305.263	698.2
305.655	691.8
306.046	701.8
306.438	703.2
306.829	691
307.221	711.2
307.613	698.6
308.005	699.8
308.397	707.2
308.789	717.4
309.181	725.8
309.573	711.2
309.965	712.2
310.357	699.4
310.749	701.4
311.142	691.8
311.534	690.6
311.926	701.4
312.319	687.8
312.711	681
313.104	706
313.497	690
313.889	745
314.282	719.6
314.675	720.6
315.068	702.8
315.461	705.6
315.854	725.2
316.247	706.8
316.64	690.8
317.033	698.4
317.405	711.6
317.798	697.8
318.192	702.8
318.585	688
318.979	695.4
319.372	689.2
319.766	688
320.16	704.4
320.553	725
320.947	722.6
321.341	701.8
321.735	696.6
322.129	685
322.523	720.8
322.917	682.6
323.311	705.6
323.705	697.4
324.099	701.8
324.494	712.2
324.888	710.8
325.282	696.6
325.677	717.8
326.071	705.4
326.466	703
326.861	701
327.255	710.2
327.65	716.4
328.045	711.6
328.44	702.4
328.835	703.2
329.23	697.4
329.625	723.4
330.02	697.4
330.415	725.4
330.81	696.6
331.206	695.6
331.601	690.6
331.996	699
332.37	708.8
332.766	690.2
333.161	724
333.557	691
333.953	691.2
334.348	1183.8
334.744	695.8
335.14	697.4
335.536	695.2
335.932	716.6
336.328	700
336.724	705.4
337.12	697.4
337.516	691.2
337.913	702.8
338.309	707.2
338.705	686.8
339.102	706
339.498	686.2
339.895	713.2
340.291	697.4
340.688	708.6
341.085	682.8
341.481	698.6
341.878	691.6
342.275	720.2
342.672	687.8
343.069	683.8
343.466	675.4
343.842	703.2
344.239	686.4
344.636	689.4
345.033	677.4
345.431	685
345.828	694.2
346.225	678.6
346.623	727
347.02	694.4
347.418	691
347.816	702.6
348.213	678
348.611	698.8
349.009	683
349.407	701.2
349.805	678.8
350.203	681.2
350.601	703
350.999	688.4
351.397	744.4
351.795	691.2
352.193	704.6
352.57	702
352.969	708.8
353.367	673.2
353.766	685.8
354.164	689
354.563	691.8
354.961	689.8
355.36	689.2
355.759	701
356.158	685.4
356.557	681.6
356.956	686.4
357.355	683.2
357.754	698.6
358.153	707.8
358.552	716.2
358.951	685.8
359.35	705.8
359.75	686.8
360.149	676.2
360.527	679.2
360.926	677.6
361.326	694
361.726	687.2
362.125	684.4
362.525	692.4
362.925	684.8
363.325	687.8
363.724	698.6
364.124	679
364.524	677.8
364.924	687.4
365.324	691.4
365.725	667
366.125	698.6
366.525	686.8
366.904	673.6
367.304	671
367.705	701.6
368.105	694.4
368.506	686.4
368.906	698.8
369.307	689.6
369.708	697.2
370.108	670.6
370.509	694.4
370.91	688.6
371.311	691.6
371.712	689
372.113	685.6
372.514	678.2
372.894	685.2
373.295	676.8
373.696	698.8
374.097	694
374.499	726.6
374.9	685.2
375.301	676.8
375.703	679.8
376.105	679
376.506	692
376.908	691.2
377.309	687.6
377.711	687.8
378.113	682.4
378.493	685.2
378.895	685.4
379.297	692.2
379.699	677
380.102	695
380.504	686.8
380.906	682.8
381.308	712.8
381.71	675.4
382.113	692.4
382.515	671
382.918	685
383.299	670
383.701	698.4
384.104	692.2
384.507	657.6
384.909	684.4
385.312	679.8
385.715	672.6
386.118	685.2
386.521	678
386.924	700.4
387.327	682.6
387.709	682.6
388.112	672
388.515	680.4
388.918	678.8
389.322	689.2
389.725	678.6
390.129	704.4
390.532	688
390.936	690
391.339	683
391.743	687
392.125	677.6
392.529	686.6
392.933	708.2
393.337	685.6
393.74	683.4
394.144	685.6
394.548	679.8
394.953	684.2
395.357	691.8
395.761	680.4
396.144	684.6
396.548	683.8
396.952	680.8
397.357	689.4
397.761	671.6
398.166	677.4
398.57	687.6
398.975	678.2
399.379	688
399.763	735.2
400.168	686
400.572	681.2
400.977	672
401.382	702.8
401.787	708
402.192	707.2
402.597	711.8
403.002	670
403.386	695.4
403.791	696
404.197	679.4
404.602	692.4
405.007	680
405.413	676.4
405.818	684.6
406.224	675.4
406.608	671.6
407.014	668.8
407.42	717.8
407.825	680.4
408.231	698.4
408.637	678.8
409.043	705.2
409.449	685.6
409.834	675.4
410.24	684.6
410.646	696.6
411.052	706.6
411.458	692.4
411.865	697.2
412.271	703.6
412.677	688.6
413.062	696.2
413.469	679.8
413.875	714.4
414.282	695
414.689	692.2
415.095	696.2
415.502	680.8
415.888	692.8
416.294	675.8
416.701	734.4
417.108	681.8
417.515	706
417.923	695.8
418.33	717.6
418.715	701.6
419.123	685.2
419.53	692.8
419.937	692.4
420.345	702.6
420.752	694.2
421.16	713.6
421.546	687.6
421.953	702.4
422.361	682.2
422.769	688.8
423.177	683
423.585	723.2
423.992	720.8
424.379	713.2
424.787	707.6
425.195	717.2
425.603	689.6
426.011	692.6
426.419	700.8
426.806	693.4
427.214	692.2
427.623	703.6
428.031	715.4
428.44	697.6
428.848	702.2
429.235	711.8
429.644	697.8
430.053	691
430.461	702.4
430.87	722.4
431.279	706.2
431.666	690.2
432.075	692.4
432.484	694.4
432.893	690
433.302	715.6
433.711	750
434.099	703.4
434.508	682.4
434.918	676.8
435.327	709.2
435.737	702
436.125	693.8
436.534	692.8
436.944	703
437.353	703.4
437.763	726.4
438.173	682.6
438.561	709.4
438.971	671.4
439.381	684.8
439.791	689.4
440.201	683.2
440.589	707.4
440.999	702.2
441.409	701.4
441.819	680.4
442.23	707.2
442.619	700.2
443.029	697.6
443.439	700.6
443.85	708.2
444.26	716.6
444.649	707.8
445.06	702.4
445.471	694.8
445.881	707.8
446.292	711.6
446.682	727.8
447.092	691.6
447.503	759
447.914	706.2
448.325	701.8
448.715	706.8
449.126	693.2
449.537	705.4
449.948	701.4
450.338	699.2
450.75	708.2
451.161	702.2
451.572	712.8
451.984	699.4
452.374	684
452.786	700.4
453.197	707.2
453.609	711.4
453.999	696.2
454.411	698.4
454.823	721.2
455.235	712.4
455.647	697.2
456.037	719.6
456.449	687
456.862	703.8
457.274	701.2
457.665	700
458.077	717
458.489	742
458.902	697.8
459.293	708
459.705	711
460.118	703.2
460.53	709.6
460.921	724.2
461.334	710.4
461.747	706.6
462.16	722.8
462.551	726
462.964	718
463.377	698
463.79	706.4
464.182	719.2
464.595	705.6
465.008	713.4
465.421	711.2
465.813	711.4
466.226	718.2
466.64	707.2
467.053	771.8
467.445	728.6
467.859	726.8
468.272	710.8
468.686	723.6
469.078	702
469.492	698.4
469.906	706.4
470.298	712
470.712	705.6
471.126	772
471.54	686.6
471.933	692.8
472.347	691.4
472.761	701.8
473.175	702.2
473.568	702.2
473.982	702.2
474.397	712.2
474.79	709.6
475.204	725.4
475.619	704.8
476.033	721.8
476.426	705.6
476.841	705.4
477.256	731.6
477.649	705.4
478.064	698
478.479	696
478.872	703.2
479.287	690.2
479.702	698.4
480.118	707.2
480.511	704.2
480.927	703
481.342	695.2
481.736	705.6
482.151	691.6
482.566	716.2
482.96	698.6
483.376	717.4
483.792	694.2
484.186	703.2
484.602	699.2
485.017	702.8
485.412	705.6
485.827	707.4
486.243	702.6
486.638	725.6
487.054	708.8
487.47	722
487.865	704.8
488.281	693.8
488.697	690.4
489.092	698.8
489.508	688
489.925	710.8
490.32	689.8
490.736	712.6
491.153	704.2
491.548	701.8
491.964	716.2
492.381	691.8
492.776	710.8
493.193	698
493.61	711
494.006	707.8
494.422	712.2
494.84	699.2
495.235	716.6
495.652	697
496.069	696
496.465	694
496.883	703.6
497.3	727.8
497.696	698.4
498.113	714.8
498.509	694
498.927	702.6
499.344	699.2
499.741	690
500.158	714.2
500.576	714.4
500.973	699.4
501.39	695.2
501.787	690.8
502.205	703.4
502.623	694.6
503.02	682
503.438	692
503.856	691.8
504.253	697.6
504.671	693.6
505.068	688.8
505.486	689.2
505.905	716.6
506.302	695
506.72	710.4
507.118	689.6
507.536	699.2
507.955	687.6
508.352	693
508.771	697.6
509.169	704.4
509.587	685.4
510.006	691
510.404	670
510.823	681.6
511.221	691.6
511.64	695.2
512.038	702.8
512.457	687.4
512.877	697.8
513.275	683
513.694	682
514.092	688.8
514.512	694.8
514.91	689.8
515.33	696.8
515.749	693.6
516.148	694
516.568	700.8
516.966	696.6
517.386	690.6
517.785	682.2
518.205	691.4
518.603	691.6
519.024	677.8
519.444	693
519.843	706.2
520.263	698
520.662	702.2
521.082	685.8
521.481	692.4
521.902	684.4
522.301	689.2
522.722	693.8
523.121	693.6
523.542	692.4
523.963	689
524.362	694
524.783	683.2
525.183	690.2
525.604	689.2
526.003	679.2
526.425	682
526.824	688
527.246	697.6
527.646	694
528.067	689
528.467	694.4
528.888	697
529.289	686.8
529.71	688.6
530.11	691.4
530.532	685.4
530.932	680.2
531.354	673
531.755	720.8
532.176	694.6
532.577	689
532.999	683
533.4	677.2
533.822	691.6
534.223	680.2
534.645	683.8
535.046	692.2
535.468	690.4
535.869	702.6
536.292	683.6
536.693	724.6
537.115	690.2
537.516	677.2
537.939	676.4
538.34	705.4
538.742	696.8
539.165	685.8
539.566	685.8
539.989	685
540.391	676.8
540.814	687
541.216	693.2
541.639	686.8
542.041	691.4
542.464	671.8
542.866	675
543.268	670.2
543.691	685.4
544.093	687.8
544.517	699.2
544.919	681
545.343	707
545.745	669.6
546.147	689
546.571	676.2
546.974	666.8
547.398	689.6
547.8	695.8
548.224	673.8
548.627	672.2
549.03	686
549.454	671.4
549.857	670.4
550.281	672.6
550.684	667.2
551.087	689.4
551.512	679.6
551.915	689.2
552.34	680.4
552.743	681.6
553.146	678.8
553.571	686.8
553.975	703
554.399	669
554.803	735.6
555.207	671.4
555.632	663.6
556.036	678.4
556.461	664.6
556.865	665.8
557.268	666.8
557.694	675.6
558.098	682.8
558.502	680.6
558.927	667.6
559.332	680.8
559.736	685.4
560.162	682.8
560.566	677.8
560.992	675.4
561.396	672.2
561.801	676.2
562.227	669
562.631	676.8
563.036	678.2
563.462	688.2
563.867	679.6
564.272	655.8
564.698	679.6
565.103	664.8
565.508	707.4
565.935	677.4
566.34	679.2
566.745	691.6
567.172	669.8
567.577	700.6
567.982	692.6
568.409	683
568.815	669
569.22	686.2
569.626	683.2
570.053	664.6
570.459	678.8
570.865	683.2
571.292	686.4
571.698	684
572.104	652.8
572.531	665.4
572.937	684.2
573.343	666.6
573.75	674
574.177	670.2
574.583	674.8
574.99	669.6
575.396	682.2
575.824	662.8
576.231	683.8
576.637	662.4
577.065	695.6
577.472	663.6
577.879	668.6
578.286	690.6
578.714	663
579.121	676.6
579.528	688.4
579.935	683
580.364	678
580.771	656.8
581.178	662.8
581.585	675.6
582.014	685.6
582.421	669
582.829	668
583.236	674.6
583.644	667.8
584.073	677.4
584.481	666.8
584.889	660
585.296	679.6
585.726	671
586.134	662.8
586.542	663
586.95	690.2
587.358	659.4
587.787	668.8
588.196	660
588.604	667.8
589.012	673.2
589.421	655.6
589.851	663.4
590.259	673.8
590.668	668.4
591.076	713.8
591.485	659.6
591.894	672.8
592.324	692.6
592.733	684.2
593.142	658.2
593.551	673.6
593.96	713.6
594.369	649.2
594.8	664.6
595.209	670.4
595.618	655.2
596.028	662
596.437	662.8
596.847	669
597.256	676.4
597.687	676
598.097	673.2
598.507	649.2
598.917	677
599.327	671.6
599.736	676.2
600.146	680.8
600.556	683
600.988	680.8
601.398	662.2
601.808	682
602.219	658
602.629	663.2
603.039	667.8
603.45	702.4
603.86	672.2
604.271	682.4
604.703	675.4
605.114	674.2
605.525	676
605.935	673.6
606.346	694.8
606.757	673.2
607.168	677.8
607.579	670.2
607.99	676.8
608.402	672.6
608.813	681
609.224	666
609.636	653.8
610.047	665.2
610.48	670.8
610.892	685.8
611.303	677.8
611.715	663.6
612.127	668
612.539	664.8
612.95	676.6
613.362	657.8
613.774	646
614.186	664.2
614.599	657.6
615.011	677.4
615.423	665.2
615.835	660.2
616.248	651.8
616.66	672.8
617.073	663
617.485	660.6
617.898	676.4
618.311	677.2
618.723	668.6
619.136	702
619.549	685.6
619.962	694.8
620.375	669.8
620.788	674.4
621.201	665.2
621.614	679.2
622.028	667.4
622.441	676.2
622.854	690.2
623.268	656.4
623.681	678.6
624.095	665
624.509	671.8
624.922	673.4
625.336	656.8
625.728	672.2
626.142	683.4
626.556	685.2
626.97	669.2
627.384	663.4
627.799	667.6
628.213	678.8
628.627	654
629.041	665.8
629.456	661.8
629.87	667.2
630.285	678
630.699	678.8
631.093	665.8
631.507	674.4
631.922	673.6
632.337	682.2
632.752	661.4
633.167	666.6
633.582	671.4
633.997	672.6
634.412	660.8
634.806	664
635.221	656.4
635.637	681.4
636.052	658
636.468	675.8
636.883	698
637.299	664.4
637.715	655.8
638.109	671.6
638.525	658.6
638.941	683.4
639.357	672
639.773	679.8
640.189	659.2
640.584	660.4
641	667.6
641.416	658.4
641.832	664.8
642.249	666
642.665	666.6
643.06	669
643.477	678.6
643.894	649
644.31	667.6
644.727	667.8
645.123	664.2
645.54	665.4
645.957	670.4
646.374	684.8
646.77	666.6
647.187	707.2
647.604	658.8
648.021	663
648.439	657
648.835	672.8
649.252	664.2
649.67	656
650.088	667.6
650.484	665.8
650.902	673.4
651.32	674.2
651.738	668.2
652.134	666
652.552	685.4
652.971	670.6
653.389	667.4
653.786	682.2
654.204	692.4
654.622	662.8
655.019	670
655.438	678.4
655.857	668.6
656.275	673.8
656.673	665.4
657.091	750.2
657.51	655.8
657.908	677
658.327	683.2
658.746	654.6
659.144	675.2
659.563	681.4
659.982	670.4
660.38	658.8
660.8	667.2
661.219	672.4
661.617	673.4
662.037	668
662.457	682.8
662.855	654
663.275	699
663.695	668.6
664.094	671
664.514	671.4
664.934	658.8
665.333	670.4
665.753	670.2
666.152	662.8
666.572	663.6
666.993	685.8
667.392	669.8
667.812	675.6
668.212	664
668.632	680.8
669.053	665.8
669.453	667.8
669.874	673
670.273	671.8
670.694	664.8
671.116	677.2
671.515	676.8
671.937	663.8
672.337	662.6
672.758	672.4
673.158	680.2
673.58	659.6
673.98	669
674.402	692.6
674.824	669
675.224	663.2
675.646	664.2
676.047	660.6
676.469	657.4
676.869	674
677.292	676.2
677.693	658.2
678.115	654.6
678.516	674.6
678.939	666.2
679.34	661
679.762	674
680.164	667.4
680.586	656.2
680.988	668
681.411	688.6
681.812	663.6
682.236	658.2
682.637	657.6
683.061	665.2
683.462	665.4
683.864	662.6
684.288	680.4
684.69	666.8
685.114	672.8
685.516	671.6
685.94	657.2
686.342	668.8
686.766	654.4
687.168	663.2
687.571	689.6
687.995	663.4
688.398	652.8
688.822	659.8
689.225	680.6
689.628	680.6
690.052	668.2
690.456	672.8
690.88	669.4
691.284	655.4
691.687	670
692.112	660.2
692.515	653
692.919	670.2
693.344	668.2
693.747	652.4
694.173	655.2
694.577	682.4
694.98	667.2
695.406	662
695.81	669.8
696.214	672.8
696.64	672
697.044	676.2
697.448	675
697.874	655.8
698.279	661.6
698.684	649.4
699.11	663.8
699.514	658.8
699.919	669.2
700.324	654.4
700.75	664.6
701.156	672
701.561	683.4
701.987	672.4
702.393	673.2
702.798	671.2
703.203	670.2
703.63	658.8
704.036	658.4
704.442	667.6
704.847	656.2
705.274	663.8
705.68	663.6
706.086	678.4
706.492	646
706.92	664.6
707.326	679
707.732	661.6
708.139	665.6
708.545	655.6
708.973	671.4
709.38	668.8
709.786	656.6
710.193	683.8
710.6	667.6
711.028	651
711.435	659.4
711.842	671.2
712.249	655
712.656	669
713.064	685.6
713.492	665
713.9	667.2
714.307	675.4
714.715	662.8
715.123	660
715.53	659.4
715.938	680.2
716.367	671.4
716.775	655.4
717.184	652
717.592	663
718	673.2
718.408	708.2
718.816	717.6
719.225	668.6
719.633	668.4
720.042	661.8
720.472	665.2
720.881	682.2
721.29	660.2
721.699	657.2
722.108	668.8
722.517	666
722.926	655.8
723.335	680.4
723.744	659.6
724.154	666.6
724.563	662.4
724.973	665.6
725.382	674.2
725.792	660.6
726.202	652.8
726.612	688
727.022	665.4
727.432	661.6
779.813	656.2
780.223	712.4
780.634	665.2
781.044	659
781.454	662.8
781.865	683.6
782.276	647.8
782.686	668.2
783.097	660
783.508	659
783.919	675
784.33	673.4
784.741	682.8
785.152	657.2
785.563	648
785.974	657.8
786.386	675.6
786.776	655.6
787.188	663
787.599	658.8
788.011	672.4
788.423	673.2
788.835	663.6
789.247	654.8
789.659	655.4
790.071	659.2
790.483	709
790.874	655.8
791.286	673.4
791.699	658.2
792.111	658.4
792.524	673.4
792.937	663.4
793.349	653.8
793.741	653.4
794.154	660.2
794.567	688.4
794.98	666.6
795.393	663.8
795.785	682
796.198	664.6
796.612	667
797.026	658.2
797.439	641.6
797.831	658
798.245	656
798.659	663.2
799.073	659.4
799.487	654
799.88	652.4
800.294	659.6
800.708	670.4
801.123	668.6
801.516	681.2
801.93	650.2
802.345	646
802.76	667.2
803.153	676.6
803.568	677.8
803.983	674.2
804.377	665.2
804.792	657.8
805.207	651.8
805.601	655.2
806.016	696.8
806.432	651.6
806.826	691.8
807.242	686.8
807.658	663.4
808.052	660.8
808.468	656.6
808.884	654.6
809.279	656.8
809.695	676.8
810.111	687
810.506	667.6
810.922	678
811.339	657.4
811.734	663.6
812.151	661.8
812.546	655.8
812.963	655.8
813.38	661.2
813.776	662.8
814.193	686.8
814.589	659.8
815.006	650
815.402	649.4
815.82	658
816.237	657.2
816.633	664.6
817.051	659.8
817.448	668
817.866	660.6
818.262	677
818.68	662.6
819.077	657.6
819.495	665.8
819.892	713.2
820.311	658.2
820.708	646.8
821.127	655.2
821.524	669.4
821.943	663
822.34	681.2
822.759	662.8
823.157	664
823.576	671
823.974	668.6
824.393	797.2
824.791	657
825.189	645.8
825.609	658.8
826.007	661
826.427	647.4
826.826	657
827.246	664
827.644	645
828.043	682
828.463	662.8
828.862	669.6
829.261	666.8
829.682	650.4
830.081	668.2
830.502	652.6
830.901	664.8
831.301	649.4
831.722	647.8
832.121	667.8
832.521	648.8
832.943	652
833.342	654.6
833.742	656.2
834.164	662.8
834.564	654.2
834.965	655.6
835.386	651.8
835.787	665.4
836.188	663
836.588	657
837.01	663.6
837.411	651.2
837.812	662.4
838.213	665
838.636	655.6
839.037	747.4
839.438	664
839.84	653.6
840.263	665.8
840.664	674
841.066	652.6
841.468	660.6
841.891	659.2
842.293	668.6
842.695	664
843.098	667.4
843.5	649.6
843.902	659.8
844.326	658
844.729	659.6
845.131	676.2
845.534	661.6
845.937	666.4
846.34	673
846.764	661.8
847.167	659.6
847.571	650
847.974	665.6
848.377	658
848.781	701.4
849.184	679.8
849.588	652.6
849.992	656.6
850.396	657
850.821	681.8
851.225	665.6
851.63	663.8
852.034	677.8
852.438	654.4
852.843	803.6
853.247	649
853.652	650.6
854.057	680.8
854.462	672
854.867	667.8
855.272	692.4
855.677	662.2
856.082	658.2
856.487	652.4
