#lambda/nm	C1
208.295	562.8
208.67	505
209.045	465
209.419	465.2
209.794	694.6
210.169	665.2
210.544	812.6
210.919	692.2
211.295	687.8
211.67	683.6
212.045	686.2
212.421	681.8
212.796	735.2
213.172	682.4
213.547	677.6
213.923	682
214.299	680.2
214.675	688.6
215.051	692.8
215.427	696.4
215.803	709
216.179	693.6
216.555	677.6
216.932	692
217.308	686
217.684	684.6
218.061	690
218.438	695.6
218.814	674.4
219.191	695.8
219.568	679
219.945	685.8
220.322	686.6
220.699	685.2
221.076	694
221.453	694.6
221.83	676.4
222.208	686.4
222.585	680
222.962	687.6
223.34	690.8
223.717	689.8
224.095	682.6
224.473	688.6
224.851	685.4
225.229	672.8
225.607	696.6
225.985	666.6
226.363	687.2
226.741	684.6
227.119	677.4
227.497	696.6
227.876	669
228.254	688.4
228.633	694.4
229.011	679.6
229.39	689.6
229.769	683.2
230.148	689.6
230.527	709.2
230.905	679.4
231.284	688.8
231.664	676.8
232.043	706
232.422	696
232.801	678
233.181	696.2
233.56	682.4
233.94	678.6
234.319	672.4
234.699	686.6
235.079	736.2
235.458	731.6
235.838	705.8
236.218	677.2
236.598	675.8
236.978	669.8
237.358	677.2
237.738	676.2
238.119	691.6
238.499	671.4
238.88	691.6
239.26	702.2
239.641	669.8
240.021	685
240.402	683.6
240.783	674.8
241.163	680
241.544	683
241.925	687.6
242.306	700.4
242.687	679.6
243.069	679.4
243.45	690.8
243.831	680.2
244.212	678.6
244.594	723.6
244.975	694.2
245.357	686
245.739	678.2
246.12	688.8
246.502	707.6
246.884	688.6
247.266	677.4
247.648	689.4
248.03	704.4
248.412	687.8
248.794	692
249.176	682
249.559	698.8
249.941	677.8
250.323	681
250.706	682.8
251.089	694.4
251.471	682.8
251.854	681.6
252.237	687.4
252.62	696.8
253.002	681.4
253.385	675.8
253.769	694.2
254.152	689.8
254.535	684.6
254.918	680.2
255.301	683.2
255.685	674.2
256.068	669.4
256.452	704.4
256.835	693.6
257.219	684.4
257.603	691.8
257.986	669.4
258.37	692.2
258.754	669.6
259.138	680.6
259.522	695.6
259.906	674.8
260.29	699.2
260.675	688
261.059	684.4
261.443	668
261.828	688.6
262.212	689.6
262.597	667.6
262.981	680.8
263.366	697.4
263.751	685
264.136	679.8
264.521	681.8
264.906	684.8
265.291	699.8
265.676	682.2
266.061	700.6
266.446	709.4
266.831	689.2
267.217	708.2
267.602	696.8
267.987	688.6
268.373	682.6
268.759	690.8
269.144	697.6
269.53	689.6
269.916	685.8
270.302	682.6
270.688	693.8
271.074	693
271.46	700.8
271.846	725
272.232	688.4
272.618	683.2
273.004	689
273.391	701.8
273.777	699.8
274.164	692.2
274.55	710.2
274.937	686.8
275.324	690.8
275.71	689.6
276.097	695.4
276.484	684.6
276.871	684
277.258	691
277.645	667.4
278.032	683.4
278.419	678.8
278.807	684.8
279.194	666.8
279.581	680.8
279.969	696.2
280.356	697.2
280.744	688.4
281.131	713.2
281.519	698.4
281.907	673
282.295	686.6
282.682	705.6
283.07	688.6
283.458	694
283.846	684.6
284.235	694
284.623	701.4
285.011	662.2
285.399	683.4
285.788	679.4
286.176	674.8
286.565	698
286.953	682
287.342	679
287.731	678.6
288.119	682.2
288.508	678
288.897	692.2
289.286	673.6
289.675	691.2
290.064	698.6
290.453	690
290.821	680.8
291.21	701.6
291.599	678.2
291.989	691
292.378	694.4
292.768	715.2
293.157	685
293.547	690.8
293.936	687.8
294.326	688.2
294.716	695.2
295.106	680.4
295.496	691.6
295.886	698.8
296.276	688
296.666	681.4
297.056	676
297.446	676
297.836	717
298.227	680.8
298.617	690.2
299.008	701.8
299.398	687.8
299.789	678.8
300.179	692.2
300.57	711.2
300.961	686.6
301.352	682.8
301.742	700.8
302.133	683.8
302.524	689.4
302.915	686.4
303.307	681.8
303.698	702
304.089	690
304.48	693.2
304.872	690.8
305.263	692.8
305.655	682.2
306.046	689
306.438	700.4
306.829	686.4
307.221	708.8
307.613	696.4
308.005	711
308.397	713
308.789	718.2
309.181	711.8
309.573	706.8
309.965	700.4
310.357	682.4
310.749	705.4
311.142	676.8
311.534	692.6
311.926	693.4
312.319	689.2
312.711	685
313.104	711.6
313.497	681.8
313.889	735.8
314.282	700.6
314.675	723
315.068	701.4
315.461	705
315.854	723.6
316.247	706.4
316.64	684.2
317.033	692.4
317.405	698.2
317.798	690.4
318.192	692.6
318.585	680.6
318.979	700.6
319.372	682.4
319.766	697.4
320.16	695.4
320.553	703.4
320.947	714.2
321.341	689.4
321.735	690.4
322.129	672
322.523	714
322.917	695
323.311	697.6
323.705	701.4
324.099	699
324.494	715.8
324.888	701.6
325.282	685.8
325.677	709.6
326.071	699.2
326.466	699.4
326.861	696.4
327.255	702.4
327.65	700
328.045	710.2
328.44	689.6
328.835	693.4
329.23	683
329.625	712.2
330.02	681.6
330.415	712.8
330.81	691.6
331.206	693.4
331.601	681
331.996	701.2
332.37	714.6
332.766	679.8
333.161	710.2
333.557	681.8
333.953	692.6
334.348	1164.8
334.744	687.4
335.14	686
335.536	681.4
335.932	711
336.328	691
336.724	698
337.12	698.2
337.516	704.4
337.913	690.8
338.309	706.6
338.705	680.4
339.102	702.6
339.498	689.6
339.895	701.4
340.291	690.2
340.688	690.2
341.085	680.4
341.481	691.4
341.878	684.4
342.275	713.4
342.672	675.8
343.069	683.4
343.466	684.6
343.842	702.8
344.239	687.4
344.636	696.2
345.033	679.2
345.431	685.8
345.828	692
346.225	678
346.623	719
347.02	688
347.418	698.6
347.816	701.6
348.213	680
348.611	692.8
349.009	685.6
349.407	690.6
349.805	678
350.203	677.8
350.601	701.8
350.999	684.6
351.397	755
351.795	680.6
352.193	694.4
352.57	695
352.969	702
353.367	682.8
353.766	682.2
354.164	691
354.563	692
354.961	684.6
355.36	690.6
355.759	676.4
356.158	679.8
356.557	678.2
356.956	673.2
357.355	675.4
357.754	690.6
358.153	689.8
358.552	708.4
358.951	684.2
359.35	699.4
359.75	674.2
360.149	680.6
360.527	663
360.926	670.6
361.326	680.2
361.726	677.8
362.125	674.4
362.525	680.2
362.925	674.6
363.325	677
363.724	677.6
364.124	670.8
364.524	668.8
364.924	674.4
365.324	690.8
365.725	663.4
366.125	689.6
366.525	683.8
366.904	676.2
367.304	669
367.705	710.4
368.105	690.2
368.506	683.2
368.906	689
369.307	668.4
369.708	686.8
370.108	671.8
370.509	695
370.91	675.4
371.311	685.8
371.712	683.2
372.113	684
372.514	667.2
372.894	682
373.295	669.6
373.696	691
374.097	688.2
374.499	714.4
374.9	679.6
375.301	671.4
375.703	692.8
376.105	677.4
376.506	682.6
376.908	688.2
377.309	684.2
377.711	687.8
378.113	683
378.493	680.6
378.895	671.4
379.297	688.2
379.699	671
380.102	691.8
380.504	683.4
380.906	678
381.308	709.4
381.71	668.2
382.113	696.8
382.515	679
382.918	680
383.299	675.4
383.701	688.8
384.104	678
384.507	666.2
384.909	680.4
385.312	668.6
385.715	664.4
386.118	677
386.521	669
386.924	690.2
387.327	663
387.709	661.2
388.112	661.2
388.515	672.6
388.918	677.8
389.322	679.2
389.725	664.6
390.129	696.8
390.532	686.2
390.936	668
391.339	667
391.743	680.8
392.125	671.6
392.529	692.4
392.933	694.8
393.337	682.2
393.74	677.6
394.144	685.8
394.548	672.6
394.953	674.8
395.357	685.6
395.761	676.4
396.144	681.2
396.548	674
396.952	680
397.357	689.6
397.761	673
398.166	687.4
398.57	680.2
398.975	671
399.379	685.6
399.763	737.2
400.168	677.8
400.572	682
400.977	674.4
401.382	691.4
401.787	692.4
402.192	710.8
402.597	696.4
403.002	672.8
403.386	691
403.791	701.4
404.197	670
404.602	683
405.007	682.2
405.413	673.6
405.818	682.6
406.224	669.6
406.608	678
407.014	665.8
407.42	697.6
407.825	679.6
408.231	690.8
408.637	678.6
409.043	688
409.449	684
409.834	676.8
410.24	677.6
410.646	693.8
411.052	695
411.458	686.4
411.865	690.4
412.271	689
412.677	682.6
413.062	687.6
413.469	682.2
413.875	702.8
414.282	698.8
414.689	693.2
415.095	692.2
415.502	673.8
415.888	682.8
416.294	676.2
416.701	723.6
417.108	672
417.515	699.8
417.923	687.4
418.33	702.8
418.715	697.2
419.123	681.8
419.53	673.8
419.937	690.2
420.345	704
420.752	679.8
421.16	693.4
421.546	680.6
421.953	694.6
422.361	663.4
422.769	680
423.177	678.4
423.585	714.4
423.992	706
424.379	704.4
424.787	700.2
425.195	697.6
425.603	682.4
426.011	705.8
426.419	696.2
426.806	684.4
427.214	691.6
427.623	699.2
428.031	703.6
428.44	689.6
428.848	701
429.235	707
429.644	689
430.053	692
430.461	707.2
430.87	714
431.279	703.8
431.666	676.8
432.075	693.2
432.484	696.2
432.893	694.4
433.302	706.8
433.711	743.4
434.099	693.4
434.508	677.6
434.918	678.2
435.327	690
435.737	698.2
436.125	693.8
436.534	695.4
436.944	692.2
437.353	699
437.763	716.6
438.173	689.2
438.561	698.6
438.971	676.8
439.381	693.4
439.791	698.6
440.201	670.8
440.589	695.2
440.999	701.2
441.409	704.8
441.819	696.2
442.23	710.2
442.619	711.4
443.029	702.6
443.439	708.8
443.85	726.2
444.26	724.2
444.649	716
445.06	706.6
445.471	705.4
445.881	704.2
446.292	713
446.682	741.6
447.092	701.4
447.503	769.6
447.914	710.4
448.325	725.6
448.715	717.2
449.126	705
449.537	717.4
449.948	718
450.338	729.2
450.75	722.6
451.161	721.4
451.572	731.8
451.984	716.2
452.374	705.2
452.786	722.2
453.197	725.2
453.609	727.8
453.999	708.8
454.411	710.2
454.823	728.6
455.235	719.4
455.647	721.2
456.037	736
456.449	703
456.862	719
457.274	720.2
457.665	711.6
458.077	734.4
458.489	765
458.902	718
459.293	725
459.705	731.2
460.118	713.4
460.53	724
460.921	732.2
461.334	724.8
461.747	723.8
462.16	735
462.551	741.8
462.964	735.2
463.377	709.6
463.79	716.2
464.182	724
464.595	717.8
465.008	731.4
465.421	728
465.813	718.8
466.226	729
466.64	725
467.053	777.8
467.445	736.2
467.859	743.4
468.272	735
468.686	741.8
469.078	721.8
469.492	712.8
469.906	733
470.298	731.4
470.712	716.2
471.126	790.4
471.54	720.4
471.933	720.4
472.347	725.2
472.761	725.2
473.175	716.2
473.568	724.2
473.982	711
474.397	729.4
474.79	720.6
475.204	742.6
475.619	733.4
476.033	728
476.426	734.4
476.841	720
477.256	750.4
477.649	726.6
478.064	719.8
478.479	717.4
478.872	721.6
479.287	711.6
479.702	721
480.118	725
480.511	721.8
480.927	723.2
481.342	712.8
481.736	725.4
482.151	706.4
482.566	736.2
482.96	725.4
483.376	739.8
483.792	717.8
484.186	726.4
484.602	722.6
485.017	727.6
485.412	723.2
485.827	729.4
486.243	731.6
486.638	738.6
487.054	732.4
487.47	732.8
487.865	717.6
488.281	715.4
488.697	715.6
489.092	722
489.508	714.4
489.925	733.2
490.32	708.6
490.736	723.8
491.153	718.8
491.548	713.6
491.964	718.8
492.381	702.4
492.776	724.8
493.193	716.2
493.61	729.2
494.006	722.4
494.422	714.2
494.84	711.4
495.235	732.6
495.652	722.4
496.069	714.6
496.465	704.6
496.883	715
497.3	742.4
497.696	711.4
498.113	732.4
498.509	701.4
498.927	709.2
499.344	711.4
499.741	703.4
500.158	730.8
500.576	714.4
500.973	718.6
501.39	706.6
501.787	691
502.205	720.2
502.623	702.2
503.02	704.6
503.438	700.6
503.856	712
504.253	705.4
504.671	714.8
505.068	702.2
505.486	704.8
505.905	723.4
506.302	699.6
506.72	717.8
507.118	693.6
507.536	707.6
507.955	703.6
508.352	718
508.771	709.2
509.169	716
509.587	690.2
510.006	707.6
510.404	687.4
510.823	693.6
511.221	702.4
511.64	705.6
512.038	721
512.457	699.2
512.877	699.2
513.275	693.6
513.694	702.4
514.092	694
514.512	708.4
514.91	694
515.33	698.6
515.749	710.2
516.148	705
516.568	715.8
516.966	700.2
517.386	693
517.785	695.6
518.205	694.4
518.603	694
519.024	683.4
519.444	702.4
519.843	706.2
520.263	714.8
520.662	697
521.082	695
521.481	693.2
521.902	698.6
522.301	702.6
522.722	698.4
523.121	695.2
523.542	691.8
523.963	693.6
524.362	697
524.783	693.4
525.183	692.8
525.604	703.4
526.003	682.4
526.425	687.6
526.824	699.6
527.246	703.4
527.646	694.6
528.067	695.4
528.467	696.4
528.888	701.8
529.289	684.8
529.71	699.4
530.11	691.4
530.532	686.6
530.932	691.2
531.354	684.6
531.755	725.2
532.176	699.2
532.577	684
532.999	691.8
533.4	683.2
533.822	708.8
534.223	700
534.645	685.6
535.046	677.6
535.468	688.6
535.869	703
536.292	677
536.693	734.8
537.115	687.8
537.516	684.4
537.939	691.2
538.34	705.2
538.742	701.4
539.165	689
539.566	679.8
539.989	672
540.391	675
540.814	684.6
541.216	683.6
541.639	682.6
542.041	696.8
542.464	677.8
542.866	676.8
543.268	668
543.691	687.6
544.093	701.8
544.517	706.8
544.919	677.6
545.343	711.8
545.745	675.2
546.147	691.6
546.571	677.8
546.974	670.2
547.398	684.2
547.8	690.2
548.224	690
548.627	677.2
549.03	689.8
549.454	677.6
549.857	668.4
550.281	672
550.684	676
551.087	693.4
551.512	689
551.915	689
552.34	685.4
552.743	677.4
553.146	684.2
553.571	683.6
553.975	702.6
554.399	675.6
554.803	732
555.207	671.6
555.632	675.6
556.036	678.4
556.461	676.2
556.865	682.8
557.268	675.8
557.694	674.4
558.098	692.6
558.502	680
558.927	676.2
559.332	674.8
559.736	683
560.162	689.2
560.566	682.2
560.992	671.6
561.396	681.2
561.801	678
562.227	670.2
562.631	674.6
563.036	676.4
563.462	680.2
563.867	684.4
564.272	665
564.698	681.4
565.103	664.2
565.508	690.8
565.935	683.4
566.34	666.2
566.745	697.8
567.172	668.6
567.577	694.6
567.982	689.8
568.409	673.4
568.815	664.4
569.22	675
569.626	681.8
570.053	662.4
570.459	673.8
570.865	674.6
571.292	681.6
571.698	680.2
572.104	651.4
572.531	672.2
572.937	673.4
573.343	670.6
573.75	663.6
574.177	675
574.583	673.2
574.99	668.4
575.396	676
575.824	677.8
576.231	687.4
576.637	671.8
577.065	697.6
577.472	671.4
577.879	672.6
578.286	689.4
578.714	667.6
579.121	673.2
579.528	675
579.935	684
580.364	676.8
580.771	658.4
581.178	667.4
581.585	678.2
582.014	668.4
582.421	672
582.829	656
583.236	678
583.644	662.2
584.073	673
584.481	676.4
584.889	664.6
585.296	685.8
585.726	670.8
586.134	658.8
586.542	658.4
586.95	691
587.358	665.2
587.787	673.4
588.196	658.6
588.604	675.6
589.012	671.4
589.421	657
589.851	657.2
590.259	673
590.668	679.6
591.076	708.2
591.485	667.8
591.894	670.4
592.324	679
592.733	684.6
593.142	656.4
593.551	656.4
593.96	663.8
594.369	655.6
594.8	655
595.209	664
595.618	653.2
596.028	652.6
596.437	660.6
596.847	669.8
597.256	668.6
597.687	672.2
598.097	665.6
598.507	665.8
598.917	670
599.327	672
599.736	675.2
600.146	673.8
600.556	661.6
600.988	680.6
601.398	665.8
601.808	674
602.219	661.6
602.629	666.2
603.039	669
603.45	704
603.86	674.4
604.271	691.8
604.703	672.6
605.114	664.2
605.525	668.6
605.935	676.6
606.346	689.6
606.757	666.4
607.168	672.2
607.579	667
607.99	682
608.402	669.6
608.813	677.8
609.224	658
609.636	658.8
610.047	652
610.48	667.2
610.892	680.2
611.303	680.4
611.715	662.4
612.127	669.4
612.539	663.8
612.95	662.4
613.362	650.4
613.774	653.2
614.186	653.4
614.599	652.6
615.011	675.8
615.423	666.4
615.835	658.2
616.248	652
616.66	676.2
617.073	662.8
617.485	657.4
617.898	670.4
618.311	664.6
618.723	674.8
619.136	697.8
619.549	681.8
619.962	692.8
620.375	667.8
620.788	677.4
621.201	669.2
621.614	674.2
622.028	659.4
622.441	667.8
622.854	678
623.268	657
623.681	678.6
624.095	667.4
624.509	675.4
624.922	669.2
625.336	658.8
625.728	655.8
626.142	672.8
626.556	681
626.97	677.4
627.384	669.2
627.799	664.4
628.213	675.8
628.627	671.2
629.041	659.8
629.456	659.4
629.87	668.2
630.285	670.8
630.699	666.4
631.093	662.8
631.507	665.8
631.922	676.2
632.337	679.8
632.752	658.4
633.167	667.8
633.582	666
633.997	655.6
634.412	667.2
634.806	667.4
635.221	657
635.637	670.4
636.052	650.4
636.468	664
636.883	684.2
637.299	665.8
637.715	648.2
638.109	669.6
638.525	649.2
638.941	670
639.357	665.6
639.773	674.2
640.189	670
640.584	658.4
641	669.4
641.416	653.4
641.832	660.8
642.249	660.2
642.665	659.6
643.06	670.6
643.477	669.2
643.894	641.4
644.31	667.4
644.727	665.6
645.123	658.4
645.54	644.6
645.957	669.4
646.374	676
646.77	653.8
647.187	692
647.604	666.4
648.021	647.8
648.439	653.2
648.835	665
649.252	650.6
649.67	660.6
650.088	663.6
650.484	668.8
650.902	675.6
651.32	672.4
651.738	652
652.134	656.4
652.552	682.8
652.971	678.2
653.389	666
653.786	678
654.204	684.6
654.622	657.8
655.019	662.4
655.438	671.8
655.857	661.6
656.275	666.6
656.673	640.6
657.091	740.4
657.51	659.6
657.908	678.2
658.327	682.4
658.746	652.2
659.144	654.2
659.563	674.4
659.982	670.2
660.38	655
660.8	660.4
661.219	678.6
661.617	673
662.037	667.6
662.457	675.2
662.855	643.8
663.275	698.4
663.695	659.2
664.094	658.6
664.514	671.6
664.934	661.2
665.333	665.4
665.753	656.2
666.152	654.8
666.572	652.8
666.993	673.6
667.392	659.2
667.812	661.6
668.212	657
668.632	666.8
669.053	645.6
669.453	669.8
669.874	667.4
670.273	665.6
670.694	654.6
671.116	676.2
671.515	663.8
671.937	664.6
672.337	654.2
672.758	656.8
673.158	669.2
673.58	647.4
673.98	659.2
674.402	674.6
674.824	657
675.224	656.2
675.646	647.8
676.047	661.6
676.469	665
676.869	676.2
677.292	663.6
677.693	658.6
678.115	657.8
678.516	671.2
678.939	658.8
679.34	660.4
679.762	680
680.164	667.2
680.586	646.4
680.988	667.6
681.411	696.4
681.812	663
682.236	648
682.637	663.4
683.061	645.2
683.462	665.6
683.864	658
684.288	669.2
684.69	662.6
685.114	672.4
685.516	677
685.94	652.8
686.342	668.4
686.766	653.2
687.168	665.8
687.571	679.8
687.995	666.2
688.398	650.4
688.822	654.8
689.225	684.8
689.628	689.4
690.052	657
690.456	669
690.88	664.4
691.284	659
691.687	668.8
692.112	653.8
692.515	655.8
692.919	671.8
693.344	669.2
693.747	660.2
694.173	649.8
694.577	675
694.98	671.2
695.406	659.4
695.81	654
696.214	670
696.64	657.8
697.044	665.6
697.448	666
697.874	661.2
698.279	658
698.684	647.6
699.11	652.8
699.514	655.2
699.919	662.8
700.324	649.6
700.75	658.2
701.156	655.8
701.561	665
701.987	669.6
702.393	664.6
702.798	668.6
703.203	664.2
703.63	652.2
704.036	661.8
704.442	662
704.847	654.8
705.274	657.6
705.68	661
706.086	670.6
706.492	649.8
706.92	655.8
707.326	670.8
707.732	661
708.139	654
708.545	648
708.973	654.6
709.38	660
709.786	652.2
710.193	679.4
710.6	662.6
711.028	655.6
711.435	659.6
711.842	655.4
712.249	651.4
712.656	654.2
713.064	667.8
713.492	655.8
713.9	659.8
714.307	655.2
714.715	666.2
715.123	662.2
715.53	668.8
715.938	670.6
716.367	655.4
716.775	654.4
717.184	656.2
717.592	657.2
718	672.8
718.408	706
718.816	707
719.225	663
719.633	664.4
720.042	651.6
720.472	665.2
720.881	690.4
721.29	668
721.699	653.2
722.108	665.2
722.517	669.6
722.926	658.8
723.335	668.8
723.744	661.6
724.154	667.6
724.563	672.2
724.973	669
725.382	660.2
725.792	652.8
726.202	651.8
726.612	688
727.022	656
727.432	648.6
779.813	661.6
780.223	715.6
780.634	651.6
781.044	654.2
781.454	660.6
781.865	681
782.276	641.4
782.686	669.8
783.097	650.8
783.508	657.2
783.919	665.8
784.33	673.8
784.741	672.8
785.152	661.2
785.563	640
785.974	660
786.386	675
786.776	650.4
787.188	655.6
787.599	646.8
788.011	673.6
788.423	668.6
788.835	650.2
789.247	651.6
789.659	663.8
790.071	661.2
790.483	709.6
790.874	652
791.286	666.6
791.699	657.2
792.111	660
792.524	667.2
792.937	655.2
793.349	655.4
793.741	652.4
794.154	657.2
794.567	679
794.98	657.8
795.393	637.8
795.785	675
796.198	651.6
796.612	670
797.026	653
797.439	637.4
797.831	657.4
798.245	652.6
798.659	652.4
799.073	650.8
799.487	647.6
799.88	655.2
800.294	645
800.708	659.8
801.123	661.4
801.516	674.8
801.93	636.2
802.345	640
802.76	653.2
803.153	664.6
803.568	669.6
803.983	666
804.377	664.2
804.792	639.4
805.207	642
805.601	658.6
806.016	693.2
806.432	652.2
806.826	694.2
807.242	672.8
807.658	666.4
808.052	656.4
808.468	660.2
808.884	652.2
809.279	662.8
809.695	673
810.111	683
810.506	659.2
810.922	679.8
811.339	663.8
811.734	661.6
812.151	659.6
812.546	647.4
812.963	652.4
813.38	664.4
813.776	661.8
814.193	683.6
814.589	650.6
815.006	656.4
815.402	646.4
815.82	655.4
816.237	653.4
816.633	663.8
817.051	652.2
817.448	666.6
817.866	642.2
818.262	674
818.68	655.6
819.077	651.4
819.495	650.6
819.892	695.6
820.311	648.8
820.708	653
821.127	656.2
821.524	665.6
821.943	659.2
822.34	679.4
822.759	656.4
823.157	660.4
823.576	667.8
823.974	666.8
824.393	780.4
824.791	652.8
825.189	650.6
825.609	657
826.007	655.2
826.427	645.4
826.826	648.8
827.246	661.2
827.644	633
828.043	669.6
828.463	655.2
828.862	664.4
829.261	659.6
829.682	644.8
830.081	661.8
830.502	651
830.901	663.6
831.301	647.8
831.722	638.6
832.121	658.4
832.521	649.2
832.943	653.6
833.342	664.2
833.742	648.4
834.164	654
834.564	643.6
834.965	656.8
835.386	659.8
835.787	654
836.188	658.2
836.588	656.4
837.01	652
837.411	641.4
837.812	669.6
838.213	665.8
838.636	654
839.037	725
839.438	664.8
839.84	657
840.263	665.2
840.664	659
841.066	649.6
841.468	660.8
841.891	649.2
842.293	675
842.695	667.4
843.098	668.8
843.5	650
843.902	656.8
844.326	667.2
844.729	658.6
845.131	669.8
845.534	664.2
845.937	667.2
846.34	673.4
846.764	646.8
847.167	668
847.571	657.6
847.974	650.4
848.377	655.2
848.781	704.4
849.184	674.2
849.588	647
849.992	649.2
850.396	654.4
850.821	675.6
851.225	659.8
851.63	652.4
852.034	663
852.438	652
852.843	787.2
853.247	647
853.652	642.8
854.057	666.2
854.462	656.2
854.867	657.6
855.272	681.2
855.677	657.2
