#lambda/nm	C1
208.295	542
208.67	497.8
209.045	452.4
209.419	455.2
209.794	685.8
210.169	667.2
210.544	812.8
210.919	689.6
211.295	677.2
211.67	691
212.045	695
212.421	673.6
212.796	731.2
213.172	685.2
213.547	679.2
213.923	694.2
214.299	684
214.675	687.8
215.051	693.8
215.427	696.6
215.803	715.2
216.179	694
216.555	683.2
216.932	697.2
217.308	691.8
217.684	681.4
218.061	696.8
218.438	702.2
218.814	689
219.191	697.6
219.568	680.6
219.945	690
220.322	700.6
220.699	698.6
221.076	692
221.453	702
221.83	682.4
222.208	683.6
222.585	687.8
222.962	692.2
223.34	694.8
223.717	697
224.095	683.4
224.473	690.8
224.851	687.6
225.229	684.8
225.607	705.4
225.985	676.6
226.363	690.2
226.741	689.8
227.119	694
227.497	703
227.876	671.4
228.254	699.6
228.633	695
229.011	687.8
229.39	690.2
229.769	691
230.148	706
230.527	706
230.905	687.4
231.284	693
231.664	679
232.043	703.6
232.422	703.4
232.801	696.6
233.181	705.4
233.56	689.6
233.94	697.4
234.319	675.6
234.699	688.2
235.079	740.8
235.458	741.2
235.838	718.2
236.218	685.8
236.598	686.6
236.978	682.2
237.358	682.4
237.738	689.4
238.119	701
238.499	679
238.88	692.2
239.26	711.6
239.641	680
240.021	683
240.402	692.8
240.783	683.6
241.163	683.2
241.544	687.6
241.925	689.6
242.306	708.8
242.687	678.8
243.069	694.4
243.45	707
243.831	686.4
244.212	689.6
244.594	735
244.975	695.4
245.357	697.2
245.739	691.8
246.12	687.8
246.502	716.6
246.884	686.6
247.266	678.2
247.648	700.2
248.03	720
248.412	689.8
248.794	697.6
249.176	688.2
249.559	707.2
249.941	684.2
250.323	680.6
250.706	683.8
251.089	691
251.471	689.8
251.854	696
252.237	693.6
252.62	699.6
253.002	696.6
253.385	694.4
253.769	711.8
254.152	695.2
254.535	694.6
254.918	678.2
255.301	683
255.685	692.2
256.068	681.2
256.452	717.2
256.835	704.6
257.219	693.6
257.603	712.8
257.986	676.4
258.37	692.6
258.754	685
259.138	703.6
259.522	693.2
259.906	686.2
260.29	686
260.675	686.8
261.059	694.8
261.443	685.6
261.828	703.2
262.212	695.8
262.597	680.4
262.981	681.8
263.366	699.8
263.751	690.6
264.136	686
264.521	682.2
264.906	688.4
265.291	697.2
265.676	686.6
266.061	698.2
266.446	711.4
266.831	692.6
267.217	713.2
267.602	693.6
267.987	700.6
268.373	686.8
268.759	698.4
269.144	700.4
269.53	686.4
269.916	686.4
270.302	687.4
270.688	685.2
271.074	689.8
271.46	710.4
271.846	729.8
272.232	693
272.618	686
273.004	705.6
273.391	712
273.777	701
274.164	698.6
274.55	704.6
274.937	694.6
275.324	685.6
275.71	695.8
276.097	701
276.484	684
276.871	697.6
277.258	699.4
277.645	672.4
278.032	687.6
278.419	689.2
278.807	696.4
279.194	680.2
279.581	681.4
279.969	693.4
280.356	691.8
280.744	690.2
281.131	716
281.519	705
281.907	687
282.295	694
282.682	706.6
283.07	691
283.458	700.2
283.846	705.8
284.235	711.8
284.623	704.6
285.011	683.6
285.399	697
285.788	689.6
286.176	680.2
286.565	704.8
286.953	681.2
287.342	692.4
287.731	685.4
288.119	685
288.508	682.8
288.897	691
289.286	671.8
289.675	686.4
290.064	704
290.453	685.8
290.821	684
291.21	711
291.599	680.6
291.989	698
292.378	700.8
292.768	713.4
293.157	689.8
293.547	697.2
293.936	685
294.326	693.4
294.716	690.8
295.106	684.6
295.496	699.4
295.886	706.6
296.276	679.4
296.666	687
297.056	687.4
297.446	676.8
297.836	713.8
298.227	684
298.617	691.6
299.008	708
299.398	692
299.789	684
300.179	697.6
300.57	701.2
300.961	683
301.352	684.2
301.742	701
302.133	688.6
302.524	693.2
302.915	691.6
303.307	684.8
303.698	702.4
304.089	702.2
304.48	687.2
304.872	698.2
305.263	695.2
305.655	689.2
306.046	694.8
306.438	700.4
306.829	687.8
307.221	706.2
307.613	704.8
308.005	715.8
308.397	709
308.789	716
309.181	725.2
309.573	713.8
309.965	703.6
310.357	690
310.749	714.4
311.142	684.8
311.534	690.8
311.926	707
312.319	698.6
312.711	686.4
313.104	711
313.497	684.4
313.889	744.2
314.282	713.4
314.675	723
315.068	701
315.461	704.2
315.854	732.8
316.247	700.2
316.64	693.6
317.033	687.6
317.405	701
317.798	688.2
318.192	706.8
318.585	691.6
318.979	704.8
319.372	683.2
319.766	691.6
320.16	704.4
320.553	716.8
320.947	715
321.341	685.2
321.735	697
322.129	675
322.523	723.2
322.917	693.6
323.311	717.4
323.705	697.4
324.099	705.4
324.494	715
324.888	704
325.282	689.4
325.677	712.4
326.071	701
326.466	713.6
326.861	707.2
327.255	702
327.65	709.6
328.045	719.6
328.44	694.6
328.835	706
329.23	688.8
329.625	724.8
330.02	687.8
330.415	728.4
330.81	694.4
331.206	691.8
331.601	701.8
331.996	700
332.37	719.8
332.766	690.8
333.161	726.6
333.557	689.8
333.953	693.8
334.348	1192.8
334.744	700.6
335.14	694.8
335.536	692.6
335.932	705.6
336.328	689.6
336.724	713.2
337.12	681.4
337.516	694
337.913	700.4
338.309	712.6
338.705	703.4
339.102	708
339.498	685.4
339.895	707
340.291	684.4
340.688	708.6
341.085	679.2
341.481	693.4
341.878	688.6
342.275	718.2
342.672	689.2
343.069	687.8
343.466	682.8
343.842	711.6
344.239	687
344.636	702
345.033	689
345.431	688.2
345.828	696
346.225	678.8
346.623	738.6
347.02	692.6
347.418	704
347.816	711.2
348.213	684.2
348.611	708
349.009	683.4
349.407	710
349.805	682
350.203	676.6
350.601	700.6
350.999	689.2
351.397	740.2
351.795	685.6
352.193	702
352.57	706.8
352.969	709.8
353.367	680.4
353.766	681
354.164	695.6
354.563	705.8
354.961	687.6
355.36	694
355.759	690
356.158	684.4
356.557	682
356.956	676
357.355	681
357.754	702.6
358.153	699.4
358.552	712.6
358.951	692.8
359.35	708
359.75	677.2
360.149	672.8
360.527	666.8
360.926	682.8
361.326	685.4
361.726	690.2
362.125	686.2
362.525	708
362.925	690.2
363.325	695.2
363.724	689.4
364.124	681
364.524	678.4
364.924	690.4
365.324	706.8
365.725	676
366.125	693.6
366.525	689
366.904	674.8
367.304	665.2
367.705	702.2
368.105	701.4
368.506	686.8
368.906	688.2
369.307	688.8
369.708	693.4
370.108	681
370.509	699.2
370.91	682.4
371.311	690
371.712	695.2
372.113	689.8
372.514	674
372.894	683
373.295	678.4
373.696	705.4
374.097	703.6
374.499	723.6
374.9	691.6
375.301	675.4
375.703	690.4
376.105	682.8
376.506	684.6
376.908	691
377.309	688.4
377.711	690.4
378.113	680.2
378.493	686
378.895	675
379.297	692.8
379.699	669.4
380.102	684.4
380.504	678.4
380.906	683.8
381.308	715.6
381.71	681.2
382.113	695.8
382.515	686.8
382.918	688.2
383.299	684.8
383.701	696.8
384.104	684.4
384.507	654
384.909	678.6
385.312	670.6
385.715	669
386.118	689.4
386.521	671.2
386.924	704.4
387.327	675.8
387.709	664.8
388.112	670.4
388.515	682.6
388.918	677.2
389.322	685.2
389.725	678.6
390.129	700.2
390.532	684.6
390.936	680.8
391.339	672
391.743	688.6
392.125	673
392.529	690.2
392.933	699
393.337	675.8
393.74	678.8
394.144	677.6
394.548	677.4
394.953	684.8
395.357	700.8
395.761	673.8
396.144	683
396.548	684.2
396.952	689.4
397.357	685.4
397.761	684
398.166	683.2
398.57	675.8
398.975	671.4
399.379	691.6
399.763	742.6
400.168	688.2
400.572	682.6
400.977	680
401.382	703.2
401.787	693
402.192	695
402.597	694
403.002	667.8
403.386	704.2
403.791	699.6
404.197	676.8
404.602	676.4
405.007	677.4
405.413	674
405.818	683.4
406.224	676.8
406.608	681.6
407.014	671.4
407.42	697.2
407.825	682.8
408.231	693
408.637	683.2
409.043	710.2
409.449	674.4
409.834	677
410.24	691.8
410.646	706
411.052	699.2
411.458	694.6
411.865	694.2
412.271	698.8
412.677	681.8
413.062	693.2
413.469	677.4
413.875	718
414.282	704
414.689	690
415.095	694.2
415.502	683.2
415.888	691.8
416.294	667.8
416.701	726.8
417.108	684.2
417.515	693.8
417.923	681.2
418.33	709.4
418.715	694
419.123	682
419.53	686.8
419.937	682.8
420.345	697.6
420.752	687.8
421.16	701.2
421.546	690.8
421.953	699.2
422.361	680.2
422.769	686.8
423.177	671.4
423.585	714.4
423.992	711.4
424.379	704.4
424.787	705.8
425.195	714.8
425.603	689
426.011	703.8
426.419	704.4
426.806	687.4
427.214	688.2
427.623	697
428.031	711.8
428.44	699.8
428.848	712.8
429.235	702.6
429.644	686.8
430.053	680.4
430.461	704.4
430.87	727.4
431.279	708.4
431.666	676.6
432.075	691
432.484	710.6
432.893	690.2
433.302	714
433.711	751.2
434.099	693.2
434.508	687.4
434.918	691.4
435.327	705.4
435.737	685.8
436.125	685
436.534	695.6
436.944	696
437.353	702.4
437.763	712.8
438.173	681.2
438.561	702.6
438.971	672.2
439.381	688.6
439.791	696
440.201	669.2
440.589	692.8
440.999	697.8
441.409	699.6
441.819	674.8
442.23	694.4
442.619	705.2
443.029	681.8
443.439	696.4
443.85	695.8
444.26	702.2
444.649	701.4
445.06	689.8
445.471	683.4
445.881	686.4
446.292	708.6
446.682	715.6
447.092	669.6
447.503	752.4
447.914	692.6
448.325	688.8
448.715	692
449.126	687.6
449.537	687.4
449.948	692.6
450.338	690.4
450.75	697.2
451.161	695
451.572	699
451.984	686.4
452.374	667.6
452.786	689.6
453.197	694.4
453.609	698.2
453.999	675.4
454.411	678
454.823	699.8
455.235	693.4
455.647	687.4
456.037	694.2
456.449	672.4
456.862	688.4
457.274	691.4
457.665	681.8
458.077	695.4
458.489	728.2
458.902	689.8
459.293	688.4
459.705	685.4
460.118	678
460.53	692.6
460.921	693.4
461.334	697
461.747	693.6
462.16	699.4
462.551	699.2
462.964	694.4
463.377	674.6
463.79	686.6
464.182	697.4
464.595	675.4
465.008	681.8
465.421	693.2
465.813	682.6
466.226	695.8
466.64	683.6
467.053	738.4
467.445	692.6
467.859	710
468.272	692.4
468.686	696.2
469.078	682.6
469.492	675.8
469.906	688.2
470.298	701.4
470.712	681.6
471.126	750.2
471.54	672.2
471.933	677.8
472.347	685.4
472.761	681.2
473.175	674.8
473.568	685.4
473.982	671
474.397	689.4
474.79	688.2
475.204	699.4
475.619	685.2
476.033	690.6
476.426	688.6
476.841	684.2
477.256	713.4
477.649	677.4
478.064	672.2
478.479	670.2
478.872	674.8
479.287	663.2
479.702	682
480.118	681.8
480.511	691.4
480.927	681
481.342	681.6
481.736	683.4
482.151	684.4
482.566	699.2
482.96	679.6
483.376	695.6
483.792	670
484.186	681.4
484.602	677.6
485.017	679.8
485.412	672.8
485.827	688.6
486.243	680.2
486.638	713.4
487.054	685.4
487.47	701.8
487.865	670.2
488.281	682.8
488.697	669.2
489.092	678
489.508	662.6
489.925	693.6
490.32	668.2
490.736	690
491.153	680
491.548	687
491.964	688.8
492.381	670.6
492.776	682
493.193	678
493.61	694.6
494.006	680.6
494.422	694.2
494.84	672
495.235	684.8
495.652	674.4
496.069	673.4
496.465	667
496.883	677.4
497.3	711.2
497.696	681
498.113	683
498.509	665.8
498.927	675.6
499.344	676.4
499.741	676.8
500.158	688.8
500.576	685.6
500.973	680.2
501.39	672.8
501.787	668
502.205	685.6
502.623	670.6
503.02	673
503.438	666.2
503.856	685.4
504.253	691
504.671	682.2
505.068	664.8
505.486	675.8
505.905	695
506.302	684.2
506.72	696.2
507.118	667.2
507.536	677
507.955	678.8
508.352	675.6
508.771	689.2
509.169	683
509.587	661.4
510.006	678.4
510.404	667.4
510.823	666.6
511.221	668.6
511.64	679.2
512.038	695.6
512.457	673.8
512.877	682.4
513.275	676.2
513.694	675
514.092	670.8
514.512	686.4
514.91	678.2
515.33	681.2
515.749	678.8
516.148	681.6
516.568	690.2
516.966	672.8
517.386	674
517.785	686.4
518.205	681.6
518.603	671.2
519.024	678.4
519.444	690.2
519.843	689.4
520.263	688.4
520.662	674.4
521.082	671.8
521.481	683.4
521.902	680.8
522.301	688.4
522.722	676
523.121	674.8
523.542	666.8
523.963	679.4
524.362	680
524.783	684.2
525.183	679.2
525.604	687
526.003	673.8
526.425	667.6
526.824	691.6
527.246	689.4
527.646	682.4
528.067	680.4
528.467	680.8
528.888	679.2
529.289	677
529.71	675
530.11	675.2
530.532	676.2
530.932	674
531.354	668
531.755	713.6
532.176	690.2
532.577	665
532.999	682.4
533.4	672.2
533.822	691.6
534.223	677.8
534.645	673.4
535.046	672.6
535.468	677.6
535.869	696
536.292	676.8
536.693	717.4
537.115	680.8
537.516	670.4
537.939	671.2
538.34	701
538.742	693.8
539.165	684.4
539.566	681.4
539.989	669.8
540.391	677.6
540.814	672.8
541.216	681.6
541.639	678.8
542.041	693.4
542.464	677
542.866	678.2
543.268	667.4
543.691	675.8
544.093	681.2
544.517	707.6
544.919	666
545.343	700.2
545.745	673.8
546.147	690.6
546.571	664
546.974	666.4
547.398	677.4
547.8	696
548.224	679.2
548.627	668.6
549.03	678.2
549.454	674.4
549.857	664.8
550.281	665.4
550.684	660.8
551.087	687
551.512	681.8
551.915	690.2
552.34	679.6
552.743	671
553.146	681.8
553.571	673.4
553.975	701
554.399	670.8
554.803	735
555.207	675.8
555.632	661.8
556.036	677.8
556.461	674.6
556.865	673.6
557.268	680
557.694	680.4
558.098	677.6
558.502	681.2
558.927	669.6
559.332	680.8
559.736	679.4
560.162	682.4
560.566	670.2
560.992	685.2
561.396	681.8
561.801	678.6
562.227	673.8
562.631	668
563.036	668.8
563.462	688
563.867	676.2
564.272	653.8
564.698	682.8
565.103	663.8
565.508	698.2
565.935	676
566.34	669.4
566.745	689.2
567.172	677.6
567.577	704.8
567.982	685
568.409	683.6
568.815	663.2
569.22	672.6
569.626	687
570.053	661.4
570.459	677.4
570.865	688
571.292	679.4
571.698	679.4
572.104	659.2
572.531	668.6
572.937	685
573.343	680.8
573.75	668.2
574.177	682.8
574.583	689.8
574.99	675.4
575.396	671.2
575.824	677
576.231	674.8
576.637	666.2
577.065	695.8
577.472	666.6
577.879	669
578.286	694.4
578.714	672
579.121	673.6
579.528	675.2
579.935	684
580.364	678.4
580.771	659.6
581.178	666
581.585	683
582.014	675.4
582.421	673
582.829	677
583.236	684.8
583.644	670.2
584.073	669.2
584.481	673.6
584.889	662.6
585.296	674.4
585.726	666.2
586.134	665
586.542	667.8
586.95	698.8
587.358	660.2
587.787	670.6
588.196	659.6
588.604	670.4
589.012	668.4
589.421	659.2
589.851	658.2
590.259	669.6
590.668	667.4
591.076	722.2
591.485	664.6
591.894	675.6
592.324	681.4
592.733	689.6
593.142	656.2
593.551	663.8
593.96	717.2
594.369	658.4
594.8	661.4
595.209	668.8
595.618	658
596.028	666.8
596.437	664.6
596.847	664.6
597.256	667.2
597.687	668.6
598.097	675.4
598.507	651.6
598.917	673.4
599.327	672.6
599.736	662.6
600.146	680.2
600.556	670.8
600.988	689.8
601.398	667.8
601.808	699.6
602.219	663.4
602.629	670.8
603.039	670
603.45	713.6
603.86	670
604.271	692.4
604.703	683.6
605.114	672.8
605.525	674.8
605.935	676.6
606.346	696.8
606.757	676.2
607.168	672
607.579	668.4
607.99	678.2
608.402	674.8
608.813	669.4
609.224	668.8
609.636	655.4
610.047	668.6
610.48	669.6
610.892	681
611.303	685
611.715	673.6
612.127	670.4
612.539	667.4
612.95	675.4
613.362	659.4
613.774	653.4
614.186	668.2
614.599	667.2
615.011	682.2
615.423	668.8
615.835	654.6
616.248	667.6
616.66	672.2
617.073	662.8
617.485	680.6
617.898	678.2
618.311	674.2
618.723	666.2
619.136	702.2
619.549	685.6
619.962	705.2
620.375	674.2
620.788	681.6
621.201	666.2
621.614	677.6
622.028	672.2
622.441	671.6
622.854	691.4
623.268	670
623.681	683.8
624.095	669.6
624.509	675.8
624.922	677.6
625.336	662.2
625.728	676
626.142	680.2
626.556	691
626.97	678.2
627.384	663.8
627.799	668.6
628.213	678
628.627	671.8
629.041	660.8
629.456	664.2
629.87	677
630.285	676.2
630.699	680.4
631.093	679
631.507	682
631.922	679
632.337	689.8
632.752	665.8
633.167	671.6
633.582	665.4
633.997	658.8
634.412	660
634.806	667.4
635.221	657.2
635.637	685.6
636.052	658.4
636.468	671
636.883	697.6
637.299	663
637.715	655.2
638.109	673
638.525	652.8
638.941	683.4
639.357	678
639.773	680.8
640.189	663
640.584	670
641	664.4
641.416	655.8
641.832	667.8
642.249	660.6
642.665	676.8
643.06	672.8
643.477	674.8
643.894	656.2
644.31	669.6
644.727	660.6
645.123	670.4
645.54	661
645.957	667.6
646.374	675.8
646.77	673.6
647.187	692.2
647.604	667.2
648.021	663.6
648.439	662.4
648.835	676
649.252	664.2
649.67	668.8
650.088	666.2
650.484	672
650.902	669.2
651.32	673.6
651.738	673.8
652.134	673.2
652.552	689.2
652.971	668.8
653.389	665
653.786	687.4
654.204	692.8
654.622	660.2
655.019	678
655.438	670.8
655.857	671.2
656.275	676.4
656.673	652
657.091	753.2
657.51	656.8
657.908	676.2
658.327	681.6
658.746	654.4
659.144	680
659.563	689.8
659.982	675
660.38	664.6
660.8	663.8
661.219	687.4
661.617	671.4
662.037	660.2
662.457	694.2
662.855	652.2
663.275	708
663.695	673.6
664.094	667.4
664.514	669.8
664.934	661.2
665.333	680.6
665.753	663.6
666.152	652.4
666.572	670.2
666.993	687.2
667.392	661.6
667.812	668.4
668.212	664.2
668.632	679.4
669.053	668.4
669.453	677.2
669.874	673.2
670.273	668.2
670.694	661.8
671.116	676.4
671.515	663.8
671.937	663.4
672.337	670
672.758	667.6
673.158	677
673.58	659.6
673.98	676
674.402	681.2
674.824	668.6
675.224	666.8
675.646	661
676.047	662.6
676.469	678.2
676.869	678.8
677.292	671.4
677.693	662.6
678.115	658.8
678.516	673
678.939	680.8
679.34	667.4
679.762	681.2
680.164	669.2
680.586	652.4
680.988	662.4
681.411	701
681.812	661.2
682.236	656.6
682.637	658.4
683.061	658.4
683.462	674.4
683.864	658.8
684.288	672.8
684.69	651.8
685.114	685.2
685.516	680.8
685.94	659
686.342	674.8
686.766	655.2
687.168	669.4
687.571	684.2
687.995	666.4
688.398	652.6
688.822	654.6
689.225	672.4
689.628	686.4
690.052	660.6
690.456	671.4
690.88	668.6
691.284	658
691.687	674
692.112	650
692.515	653
692.919	663.2
693.344	665.2
693.747	672.8
694.173	656.6
694.577	668.8
694.98	661
695.406	663.8
695.81	667.6
696.214	669.2
696.64	671.4
697.044	667.6
697.448	675
697.874	662
698.279	665.8
698.684	651.8
699.11	656.4
699.514	664
699.919	653.4
700.324	651.6
700.75	667.6
701.156	659.6
701.561	674
701.987	672.8
702.393	676.8
702.798	672.4
703.203	665.2
703.63	653.2
704.036	658.8
704.442	661.2
704.847	658.2
705.274	663.8
705.68	674
706.086	674.4
706.492	657.4
706.92	662.6
707.326	675.8
707.732	658.6
708.139	658.6
708.545	652
708.973	664.4
709.38	665.8
709.786	650.6
710.193	679.2
710.6	664.8
711.028	656.6
711.435	656
711.842	660.8
712.249	663.4
712.656	659
713.064	670.4
713.492	655.8
713.9	661.6
714.307	669.2
714.715	667.6
715.123	652.6
715.53	668.8
715.938	671.6
716.367	653.4
716.775	654.2
717.184	658.4
717.592	657.8
718	673.8
718.408	708.8
718.816	704.4
719.225	673.6
719.633	669.2
720.042	651
720.472	662.8
720.881	687.4
721.29	672
721.699	659.2
722.108	682.4
722.517	665.4
722.926	654
723.335	675.8
723.744	673.8
724.154	668.2
724.563	662.4
724.973	669.6
725.382	664.6
725.792	661.4
726.202	650.2
726.612	689.8
727.022	668.4
727.432	665
779.813	660.8
780.223	713.4
780.634	658.4
781.044	658
781.454	665.8
781.865	683.4
782.276	649.8
782.686	667
783.097	657.8
783.508	652.4
783.919	658.2
784.33	672.2
784.741	672.6
785.152	659.8
785.563	645.2
785.974	657
786.386	670.2
786.776	665.8
787.188	666.6
787.599	657
788.011	674.4
788.423	661.8
788.835	659.6
789.247	652.8
789.659	659.2
790.071	661.6
790.483	709.6
790.874	653.4
791.286	676.4
791.699	661.8
792.111	664.8
792.524	662.2
792.937	661.2
793.349	653.4
793.741	659
794.154	656.6
794.567	683
794.98	664
795.393	645
795.785	680.2
796.198	650
796.612	661.6
797.026	657.6
797.439	639.8
797.831	663.6
798.245	651
798.659	666.8
799.073	659
799.487	648.6
799.88	658.6
800.294	668
800.708	668.4
801.123	667.6
801.516	692.2
801.93	653.4
802.345	649.8
802.76	662.8
803.153	660.2
803.568	678.2
803.983	670.4
804.377	666.6
804.792	649.4
805.207	644
805.601	666.4
806.016	697.4
806.432	654
806.826	703.4
807.242	680.4
807.658	670.2
808.052	664.4
808.468	661.8
808.884	654.4
809.279	663
809.695	677.8
810.111	694.4
810.506	663.2
810.922	677
811.339	660.2
811.734	672
812.151	657.2
812.546	654.6
812.963	652
813.38	669.6
813.776	665.2
814.193	696.6
814.589	664
815.006	658.2
815.402	656.6
815.82	660.6
816.237	660.6
816.633	657.4
817.051	652
817.448	659.2
817.866	654.6
818.262	687.2
818.68	659.8
819.077	662.8
819.495	658.8
819.892	710.2
820.311	657.6
820.708	652
821.127	657.4
821.524	682
821.943	670
822.34	680.4
822.759	667.4
823.157	666.8
823.576	687.2
823.974	673.8
824.393	768.8
824.791	657.2
825.189	644.2
825.609	653.2
826.007	661
826.427	641.4
826.826	661.8
827.246	669.6
827.644	649.6
828.043	675.8
828.463	656.4
828.862	669.4
829.261	674
829.682	654.6
830.081	665.2
830.502	657.2
830.901	668.8
831.301	657
831.722	647.8
832.121	666.2
832.521	665.2
832.943	655.2
833.342	658.2
833.742	651.2
834.164	647
834.564	647.8
834.965	660.6
835.386	656.6
835.787	656.8
836.188	650.8
836.588	663.6
837.01	652.6
837.411	657
837.812	674
838.213	674.2
838.636	652.2
839.037	740.4
839.438	669
839.84	664.4
840.263	673
840.664	662.2
841.066	667.6
841.468	666.8
841.891	649.2
842.293	677.8
842.695	660.8
843.098	671.2
843.5	654.4
843.902	662.2
844.326	671.6
844.729	669.6
845.131	674.2
845.534	658.4
845.937	677
846.34	669.6
846.764	651.6
847.167	658.4
847.571	645.6
847.974	654.2
848.377	660.4
848.781	720.6
849.184	659.4
849.588	656
849.992	649.6
850.396	661
850.821	669.4
851.225	666.8
851.63	668.2
852.034	674.2
852.438	658.6
852.843	710.4
853.247	652.8
853.652	649
854.057	676.8
854.462	656.8
854.867	658
855.272	689
855.677	651
856.082	649.6
