#lambda/nm	C1
208.295	552.2
208.67	501.8
209.045	463.8
209.419	458.8
209.794	699.8
210.169	670.6
210.544	810.8
210.919	695.8
211.295	680.6
211.67	689.8
212.045	686.2
212.421	689.8
212.796	727.6
213.172	686.4
213.547	684.6
213.923	687.8
214.299	682.4
214.675	696.2
215.051	694.4
215.427	695.6
215.803	707.6
216.179	701.4
216.555	681.4
216.932	699
217.308	692.2
217.684	686.4
218.061	686
218.438	700.8
218.814	682.6
219.191	694.6
219.568	673
219.945	685
220.322	692.6
220.699	692
221.076	697.2
221.453	693
221.83	683.8
222.208	684.8
222.585	687.6
222.962	700.8
223.34	695.6
223.717	691.6
224.095	686.6
224.473	695.4
224.851	680.4
225.229	672.4
225.607	706.2
225.985	676.2
226.363	692.2
226.741	693.4
227.119	685.8
227.497	700.2
227.876	679.4
228.254	699.4
228.633	696
229.011	688.4
229.39	698.2
229.769	695.2
230.148	701.2
230.527	711.2
230.905	680.4
231.284	701.4
231.664	687.2
232.043	703.4
232.422	701.2
232.801	683.2
233.181	697.6
233.56	698.6
233.94	684.4
234.319	679
234.699	689.2
235.079	739.8
235.458	738.6
235.838	709.4
236.218	681.8
236.598	677.4
236.978	680
237.358	681.8
237.738	690.2
238.119	690.4
238.499	683.2
238.88	690.8
239.26	712.4
239.641	676
240.021	691.6
240.402	695.8
240.783	697.4
241.163	698.6
241.544	686.6
241.925	693.2
242.306	703.2
242.687	682.8
243.069	682.8
243.45	695
243.831	680.4
244.212	689
244.594	729.6
244.975	714.2
245.357	686.8
245.739	685.2
246.12	693
246.502	716.4
246.884	684.2
247.266	691
247.648	700.4
248.03	717.6
248.412	696
248.794	704.2
249.176	684
249.559	703.8
249.941	690.6
250.323	683.4
250.706	687
251.089	694.8
251.471	692.6
251.854	697.4
252.237	685
252.62	702.4
253.002	691.6
253.385	681.4
253.769	700.4
254.152	689.8
254.535	699.8
254.918	684.6
255.301	679.2
255.685	686.4
256.068	664
256.452	715.6
256.835	701
257.219	695.8
257.603	695.6
257.986	679.2
258.37	709.4
258.754	675.8
259.138	697.4
259.522	695.6
259.906	692
260.29	684
260.675	695.4
261.059	687
261.443	683.2
261.828	700.8
262.212	699.4
262.597	676
262.981	681.8
263.366	696.2
263.751	687
264.136	687
264.521	685.2
264.906	679.8
265.291	694.4
265.676	676.2
266.061	700
266.446	706.8
266.831	682.2
267.217	713.2
267.602	698.2
267.987	701.8
268.373	687.2
268.759	701.6
269.144	702
269.53	693.4
269.916	686.2
270.302	684.2
270.688	697.8
271.074	694
271.46	713.4
271.846	728
272.232	697.4
272.618	688.4
273.004	689.8
273.391	708.4
273.777	709.2
274.164	700
274.55	722
274.937	693.2
275.324	695.8
275.71	693.4
276.097	700
276.484	686
276.871	693
277.258	693
277.645	679
278.032	687
278.419	682.6
278.807	704
279.194	684.2
279.581	689
279.969	694
280.356	690.4
280.744	691.2
281.131	723.4
281.519	700.8
281.907	683.8
282.295	684.2
282.682	709.4
283.07	697.8
283.458	700.8
283.846	703.8
284.235	702.6
284.623	708.2
285.011	683.4
285.399	687.4
285.788	695.2
286.176	679.4
286.565	712.2
286.953	685.8
287.342	693.6
287.731	687
288.119	687.6
288.508	686.6
288.897	696.8
289.286	683.2
289.675	697
290.064	700.6
290.453	689.2
290.821	687.6
291.21	714.8
291.599	679.6
291.989	687.6
292.378	695.2
292.768	719
293.157	698.4
293.547	707
293.936	694.4
294.326	681.4
294.716	698.6
295.106	684.2
295.496	700.6
295.886	702
296.276	690.4
296.666	683
297.056	684.4
297.446	674.4
297.836	706.4
298.227	694
298.617	698.8
299.008	709.8
299.398	698.6
299.789	685.6
300.179	687
300.57	708.8
300.961	685.8
301.352	690.4
301.742	696.6
302.133	697.6
302.524	689.2
302.915	696.8
303.307	677.6
303.698	701.2
304.089	705.2
304.48	688.2
304.872	705
305.263	698
305.655	689
306.046	711.4
306.438	703.8
306.829	693
307.221	708.2
307.613	699.4
308.005	707
308.397	709.4
308.789	715.8
309.181	726.4
309.573	719.8
309.965	713.2
310.357	700.6
310.749	705.2
311.142	677
311.534	685.4
311.926	702.6
312.319	686.6
312.711	688.4
313.104	710
313.497	705.6
313.889	744.6
314.282	716.6
314.675	723.2
315.068	699.4
315.461	696.8
315.854	725.2
316.247	704.6
316.64	700
317.033	695.2
317.405	708
317.798	688.6
318.192	704
318.585	684.2
318.979	697.8
319.372	689
319.766	688.2
320.16	710.2
320.553	721
320.947	716.6
321.341	691.8
321.735	696
322.129	685
322.523	718
322.917	686.6
323.311	704.8
323.705	702.2
324.099	702.4
324.494	703.2
324.888	698.6
325.282	690.8
325.677	714.6
326.071	698.8
326.466	705
326.861	706.6
327.255	700.2
327.65	708
328.045	712.2
328.44	692.4
328.835	694.4
329.23	678.4
329.625	709.6
330.02	682.8
330.415	718.2
330.81	695.6
331.206	691.8
331.601	696.4
331.996	705.6
332.37	714
332.766	680.6
333.161	716
333.557	681
333.953	692
334.348	1130.4
334.744	690
335.14	688
335.536	694.6
335.932	707.4
336.328	696
336.724	706.4
337.12	689.8
337.516	697.6
337.913	698.2
338.309	721.2
338.705	692
339.102	706.4
339.498	693.6
339.895	708.6
340.291	691.6
340.688	707.6
341.085	684
341.481	695.6
341.878	694.4
342.275	714.8
342.672	691.4
343.069	691.4
343.466	682.2
343.842	712
344.239	694.2
344.636	693.2
345.033	684.2
345.431	683.4
345.828	697.6
346.225	695
346.623	742.6
347.02	701.6
347.418	702.4
347.816	708.2
348.213	680.8
348.611	704
349.009	685
349.407	708.8
349.805	681.4
350.203	679
350.601	704.4
350.999	685.4
351.397	745.4
351.795	694.2
352.193	700.6
352.57	703.8
352.969	703.8
353.367	684.4
353.766	683.2
354.164	693.2
354.563	706.6
354.961	695.8
355.36	695.8
355.759	687.6
356.158	683.2
356.557	689.8
356.956	685
357.355	681.6
357.754	687.8
358.153	696.6
358.552	722.2
358.951	694.8
359.35	706.2
359.75	683.4
360.149	680.2
360.527	675.8
360.926	672.8
361.326	687
361.726	687.6
362.125	687.4
362.525	696.8
362.925	686.4
363.325	692.8
363.724	686.8
364.124	678.2
364.524	678.8
364.924	686.6
365.324	705
365.725	670.8
366.125	698.4
366.525	685.2
366.904	674.6
367.304	664
367.705	699.8
368.105	690.6
368.506	683
368.906	685.6
369.307	693
369.708	696.2
370.108	675
370.509	693.2
370.91	680
371.311	688.8
371.712	682
372.113	677.2
372.514	674.2
372.894	686.4
373.295	676
373.696	701.8
374.097	692.8
374.499	722.4
374.9	689.2
375.301	689.6
375.703	680.6
376.105	671
376.506	697.8
376.908	684.4
377.309	690.4
377.711	688.4
378.113	682.4
378.493	685.8
378.895	672.8
379.297	698.2
379.699	677.4
380.102	697.6
380.504	688.2
380.906	681
381.308	709.4
381.71	687.6
382.113	699
382.515	683.4
382.918	691
383.299	683.4
383.701	692.8
384.104	682.8
384.507	661.2
384.909	679.2
385.312	673.2
385.715	673.2
386.118	681
386.521	673.8
386.924	705.8
387.327	672.6
387.709	664.2
388.112	665.4
388.515	686.8
388.918	688.8
389.322	688.2
389.725	674.8
390.129	710.4
390.532	691.6
390.936	680.2
391.339	674.2
391.743	683.2
392.125	681.4
392.529	696
392.933	708.4
393.337	689.8
393.74	684.6
394.144	693.4
394.548	678.6
394.953	692.4
395.357	692.4
395.761	691.8
396.144	687.4
396.548	682.2
396.952	683.8
397.357	679.2
397.761	676.8
398.166	685.4
398.57	682.6
398.975	677.2
399.379	686.6
399.763	737.2
400.168	677.4
400.572	678.6
400.977	679.8
401.382	710
401.787	697.2
402.192	708.2
402.597	697.8
403.002	668
403.386	700
403.791	708.8
404.197	684.6
404.602	687
405.007	691.2
405.413	685.2
405.818	683
406.224	685.6
406.608	677.8
407.014	677.2
407.42	702.4
407.825	684.2
408.231	693.4
408.637	680
409.043	707.6
409.449	679.2
409.834	681.2
410.24	694.4
410.646	701.6
411.052	693.8
411.458	696.4
411.865	695.4
412.271	701
412.677	689.2
413.062	691.8
413.469	681.6
413.875	713.4
414.282	692
414.689	693.2
415.095	690.2
415.502	675.6
415.888	695
416.294	675
416.701	736.4
417.108	683.8
417.515	695
417.923	683.2
418.33	706.8
418.715	695.8
419.123	679.4
419.53	675.2
419.937	693.4
420.345	709.8
420.752	688.8
421.16	708
421.546	688.8
421.953	704.2
422.361	678.4
422.769	689.4
423.177	674
423.585	720.2
423.992	711.4
424.379	701.8
424.787	705.4
425.195	714
425.603	685.6
426.011	707.2
426.419	706.4
426.806	680.6
427.214	689.2
427.623	704.8
428.031	718.2
428.44	692.4
428.848	697.6
429.235	701.4
429.644	695.8
430.053	685.2
430.461	707
430.87	723.2
431.279	696.2
431.666	676
432.075	691.2
432.484	689.2
432.893	684
433.302	701
433.711	737.4
434.099	692.2
434.508	680.2
434.918	681.8
435.327	693.4
435.737	695
436.125	691.2
436.534	686.8
436.944	702.4
437.353	704.6
437.763	717.6
438.173	688
438.561	709.8
438.971	680.6
439.381	699.8
439.791	694.4
440.201	669.6
440.589	698.2
440.999	716.8
441.409	700.8
441.819	692.2
442.23	710.2
442.619	711.4
443.029	705.6
443.439	703.6
443.85	719.4
444.26	721.2
444.649	704.6
445.06	707
445.471	699
445.881	706.2
446.292	730.2
446.682	736.6
447.092	701.6
447.503	759.6
447.914	710.6
448.325	708
448.715	704.8
449.126	707.8
449.537	709.4
449.948	712.2
450.338	715.2
450.75	719
451.161	715.2
451.572	718.2
451.984	705.4
452.374	697.4
452.786	712.6
453.197	716.4
453.609	723.2
453.999	691
454.411	705.8
454.823	723.4
455.235	714
455.647	708.6
456.037	723.6
456.449	695.2
456.862	717.8
457.274	720.8
457.665	713.2
458.077	722.8
458.489	748.6
458.902	716.6
459.293	727.4
459.705	723.6
460.118	711.8
460.53	728.8
460.921	718.6
461.334	710.2
461.747	712.2
462.16	721.2
462.551	729.4
462.964	730
463.377	704.6
463.79	724.6
464.182	728
464.595	701
465.008	715.6
465.421	716.6
465.813	710.2
466.226	719.8
466.64	706.4
467.053	779.6
467.445	728.6
467.859	745.2
468.272	725
468.686	737.2
469.078	714.4
469.492	714.4
469.906	723.8
470.298	723
470.712	722.4
471.126	778.6
471.54	699.6
471.933	725.8
472.347	710.2
472.761	718.6
473.175	702.2
473.568	722.4
473.982	703.8
474.397	717.2
474.79	711.6
475.204	736.6
475.619	717.2
476.033	722
476.426	714.8
476.841	710.6
477.256	740.6
477.649	711.8
478.064	705.8
478.479	708.8
478.872	710.4
479.287	702.4
479.702	708.8
480.118	711.2
480.511	716
480.927	714.2
481.342	705
481.736	722.6
482.151	708
482.566	730.8
482.96	721.6
483.376	738
483.792	709
484.186	718.2
484.602	707.8
485.017	717.6
485.412	707.6
485.827	722.8
486.243	721.4
486.638	740.8
487.054	715.6
487.47	729.8
487.865	702.6
488.281	707
488.697	708.4
489.092	711.6
489.508	706.4
489.925	726.6
490.32	708.2
490.736	726.4
491.153	720.6
491.548	721.8
491.964	733.2
492.381	696.2
492.776	712.6
493.193	715
493.61	724.8
494.006	711.6
494.422	720.6
494.84	708.6
495.235	719.2
495.652	713.4
496.069	704.6
496.465	693.8
496.883	715
497.3	734
497.696	704.4
498.113	722.8
498.509	700.4
498.927	698.2
499.344	708
499.741	700.8
500.158	713.8
500.576	716.6
500.973	714.2
501.39	694.8
501.787	697.6
502.205	708.8
502.623	691.4
503.02	684.6
503.438	698
503.856	696.8
504.253	708.4
504.671	699.6
505.068	706
505.486	702.8
505.905	725.4
506.302	713.4
506.72	714.6
507.118	694.4
507.536	709.6
507.955	704
508.352	706
508.771	714.4
509.169	706.2
509.587	704.6
510.006	708.8
510.404	686.6
510.823	693.8
511.221	696.6
511.64	692.2
512.038	717.8
512.457	697.6
512.877	701.8
513.275	693.8
513.694	703.4
514.092	701.2
514.512	698
514.91	693.6
515.33	702.2
515.749	712
516.148	705.6
516.568	709
516.966	703.6
517.386	703.6
517.785	693.2
518.205	693.4
518.603	695.8
519.024	690.4
519.444	701.4
519.843	712.4
520.263	709.2
520.662	701.8
521.082	690
521.481	695.4
521.902	695.4
522.301	699.6
522.722	689.2
523.121	702.4
523.542	689.4
523.963	692.8
524.362	694.2
524.783	687.8
525.183	693.2
525.604	704
526.003	678.6
526.425	690.8
526.824	695.8
527.246	703.8
527.646	702.2
528.067	705
528.467	687.2
528.888	691.6
529.289	692.2
529.71	692
530.11	683.8
530.532	684.4
530.932	684.4
531.354	684.4
531.755	723.4
532.176	695.4
532.577	684.2
532.999	687.4
533.4	684.2
533.822	697.4
534.223	676
534.645	692.6
535.046	676.8
535.468	686.4
535.869	697.8
536.292	680
536.693	720.4
537.115	700.4
537.516	687.2
537.939	669.6
538.34	702.6
538.742	709.6
539.165	687.8
539.566	679.6
539.989	674.4
540.391	685.2
540.814	679.4
541.216	688.2
541.639	679
542.041	693.6
542.464	683
542.866	680.4
543.268	677
543.691	687.2
544.093	691.6
544.517	706.4
544.919	674.4
545.343	710.8
545.745	670.2
546.147	696.2
546.571	668
546.974	667.6
547.398	689.4
547.8	694.8
548.224	690.6
548.627	670.4
549.03	692.2
549.454	677.4
549.857	670.2
550.281	675.2
550.684	678
551.087	694.4
551.512	681
551.915	687.6
552.34	690
552.743	678.2
553.146	677.2
553.571	677.4
553.975	706.8
554.399	675.8
554.803	732.4
555.207	675.6
555.632	678.2
556.036	679.8
556.461	669.4
556.865	683.8
557.268	671.8
557.694	673
558.098	695.6
558.502	679.2
558.927	671
559.332	686.2
559.736	679.4
560.162	686.6
560.566	688.2
560.992	690
561.396	678.4
561.801	669.6
562.227	689.4
562.631	679.4
563.036	682
563.462	684.4
563.867	682.6
564.272	668
564.698	691.8
565.103	667.2
565.508	696.4
565.935	677
566.34	664.6
566.745	685.8
567.172	670.8
567.577	690.6
567.982	689.4
568.409	681.6
568.815	662.6
569.22	673.8
569.626	674.2
570.053	654.2
570.459	677.6
570.865	682.6
571.292	691.4
571.698	681.8
572.104	658.8
572.531	679.2
572.937	680.4
573.343	689.2
573.75	670.6
574.177	671
574.583	688.2
574.99	669.4
575.396	688.6
575.824	673.4
576.231	677.8
576.637	670
577.065	709.4
577.472	662.8
577.879	671.8
578.286	697.4
578.714	668.8
579.121	670.8
579.528	674.6
579.935	687.6
580.364	666.2
580.771	659.8
581.178	662.8
581.585	679
582.014	685.8
582.421	667.4
582.829	672.8
583.236	683.4
583.644	674.4
584.073	671.4
584.481	681.2
584.889	670.8
585.296	676.6
585.726	672.2
586.134	672.2
586.542	662
586.95	696
587.358	666
587.787	678.2
588.196	661.6
588.604	668.4
589.012	676.2
589.421	664.8
589.851	658.6
590.259	675.2
590.668	659.8
591.076	716.4
591.485	661
591.894	671.6
592.324	683.2
592.733	681.8
593.142	655.6
593.551	670
593.96	704.2
594.369	654.4
594.8	662.4
595.209	668
595.618	654.8
596.028	662.4
596.437	658.6
596.847	671.8
597.256	677
597.687	672.6
598.097	668.4
598.507	655.6
598.917	673.8
599.327	674.4
599.736	672.4
600.146	683.4
600.556	673.8
600.988	692
601.398	677.2
601.808	686.8
602.219	661.4
602.629	671.4
603.039	676.2
603.45	707.4
603.86	673.4
604.271	692.8
604.703	673.2
605.114	673.8
605.525	672.4
605.935	674.6
606.346	700.8
606.757	670.6
607.168	667.2
607.579	668.6
607.99	682.8
608.402	669
608.813	679.8
609.224	668.4
609.636	661
610.047	667.6
610.48	677.2
610.892	685
611.303	683.8
611.715	670.6
612.127	661.2
612.539	673.2
612.95	671
613.362	660
613.774	650.8
614.186	669
614.599	663
615.011	678
615.423	665.8
615.835	664.4
616.248	656.4
616.66	672.8
617.073	660
617.485	660.6
617.898	672
618.311	682.6
618.723	674
619.136	712.8
619.549	685
619.962	696
620.375	669
620.788	674.4
621.201	660.2
621.614	676.6
622.028	661
622.441	670
622.854	677.8
623.268	663.8
623.681	672.8
624.095	681.8
624.509	677.6
624.922	673
625.336	651.2
625.728	666.8
626.142	680.8
626.556	695.6
626.97	672.6
627.384	664
627.799	665.6
628.213	677
628.627	676.8
629.041	673.8
629.456	675.8
629.87	669.4
630.285	672.2
630.699	679.4
631.093	665
631.507	675.2
631.922	680.2
632.337	688.6
632.752	659.8
633.167	671.8
633.582	678.2
633.997	661.8
634.412	670.2
634.806	667.4
635.221	667.6
635.637	680.4
636.052	656.8
636.468	669.8
636.883	694.4
637.299	667.4
637.715	648.6
638.109	662.4
638.525	658.4
638.941	677
639.357	673.6
639.773	685.6
640.189	659
640.584	667.4
641	666.4
641.416	651
641.832	658.6
642.249	661.4
642.665	660.6
643.06	666.2
643.477	681.4
643.894	658.2
644.31	668.8
644.727	672
645.123	673.4
645.54	663.2
645.957	664.2
646.374	685.6
646.77	675.6
647.187	699.8
647.604	663.2
648.021	651.6
648.439	663.8
648.835	661.8
649.252	671.6
649.67	656.6
650.088	670.6
650.484	673.4
650.902	679.2
651.32	681.6
651.738	668.2
652.134	680.6
652.552	677.8
652.971	673.2
653.389	663.6
653.786	684.4
654.204	694.6
654.622	659.2
655.019	665
655.438	675.4
655.857	676.4
656.275	674.6
656.673	652.6
657.091	752.8
657.51	666
657.908	678.6
658.327	682
658.746	648.6
659.144	668
659.563	682
659.982	683.2
660.38	656.6
660.8	679.6
661.219	674.8
661.617	677.2
662.037	669.2
662.457	680.8
662.855	655.6
663.275	699.4
663.695	663.2
664.094	667.4
664.514	669.6
664.934	662.8
665.333	683.6
665.753	661.6
666.152	658.6
666.572	661
666.993	682.8
667.392	668.2
667.812	663
668.212	670.2
668.632	674.4
669.053	669.2
669.453	672
669.874	672.6
670.273	672
670.694	658.4
671.116	672
671.515	677.6
671.937	658.8
672.337	667
672.758	670.2
673.158	675.2
673.58	654.4
673.98	668.8
674.402	672.8
674.824	665.4
675.224	659
675.646	663.2
676.047	654.4
676.469	668.8
676.869	662.4
677.292	678.4
677.693	663
678.115	663.6
678.516	670
678.939	674
679.34	658.2
679.762	676
680.164	664.8
680.586	662
680.988	668.8
681.411	689.2
681.812	667
682.236	658.4
682.637	653
683.061	653
683.462	664.2
683.864	658.2
684.288	671
684.69	662.8
685.114	678.2
685.516	674.6
685.94	653.8
686.342	663.6
686.766	657
687.168	660.8
687.571	688.4
687.995	669
688.398	657.4
688.822	678.8
689.225	695.2
689.628	686.8
690.052	668
690.456	671.8
690.88	672.2
691.284	653.2
691.687	674.8
692.112	658.8
692.515	657
692.919	662.2
693.344	660
693.747	658.8
694.173	661.4
694.577	680.8
694.98	666.2
695.406	657.8
695.81	674.6
696.214	669.8
696.64	652.8
697.044	670
697.448	669.6
697.874	665
698.279	658.8
698.684	655.2
699.11	654.8
699.514	665.4
699.919	668
700.324	646.8
700.75	664.8
701.156	669.2
701.561	673.2
701.987	683.2
702.393	677.8
702.798	675.4
703.203	665.6
703.63	662
704.036	657.6
704.442	665.8
704.847	654.4
705.274	661.8
705.68	675.6
706.086	671.2
706.492	649.2
706.92	652.6
707.326	675.4
707.732	661.8
708.139	662.8
708.545	653.8
708.973	658.6
709.38	661.8
709.786	654.4
710.193	685.8
710.6	664.8
711.028	649.8
711.435	650.2
711.842	662.6
712.249	648.6
712.656	661
713.064	672.4
713.492	651.4
713.9	652.8
714.307	666.2
714.715	674
715.123	666.4
715.53	665.6
715.938	675
716.367	672.4
716.775	659.2
717.184	647.2
717.592	654.6
718	683.2
718.408	702.8
718.816	710.2
719.225	667.2
719.633	667.4
720.042	661.4
720.472	657.8
720.881	687.4
721.29	671.8
721.699	658
722.108	656.8
722.517	663
722.926	665.8
723.335	671.6
723.744	661.8
724.154	677.8
724.563	664.8
724.973	665
725.382	669
725.792	663.6
726.202	654.2
726.612	690.8
727.022	659.4
727.432	663.8
779.813	659.8
780.223	715.8
780.634	658.6
781.044	658.4
781.454	659.4
781.865	670.6
782.276	653.4
782.686	684.4
783.097	663
783.508	658.4
783.919	671.6
784.33	677
784.741	675.4
785.152	663.8
785.563	648
785.974	659.2
786.386	680.6
786.776	664.4
787.188	669.8
787.599	659.2
788.011	674.6
788.423	672.6
788.835	654.8
789.247	649.2
789.659	654.8
790.071	658.2
790.483	705.2
790.874	656.4
791.286	666.6
791.699	651.6
792.111	648.8
792.524	665.8
792.937	660.6
793.349	651.2
793.741	646.2
794.154	655.6
794.567	675.8
794.98	655.6
795.393	644.4
795.785	676.6
796.198	653.8
796.612	661.8
797.026	661.8
797.439	641.8
797.831	657.6
798.245	648.8
798.659	654
799.073	646
799.487	646.2
799.88	656.8
800.294	655.4
800.708	662.6
801.123	669.4
801.516	682.2
801.93	650
802.345	653.2
802.76	655.4
803.153	670
803.568	679
803.983	667.2
804.377	671.6
804.792	649
805.207	646.4
805.601	668.4
806.016	705.2
806.432	658.4
806.826	688
807.242	683.2
807.658	672.6
808.052	659.8
808.468	656.4
808.884	661
809.279	669.8
809.695	673
810.111	685.8
810.506	663.4
810.922	677.8
811.339	664.8
811.734	681
812.151	650
812.546	658
812.963	656
813.38	668
813.776	662.6
814.193	692.4
814.589	653.6
815.006	663.8
815.402	656.2
815.82	658.6
816.237	673.2
816.633	660.2
817.051	656.8
817.448	662.6
817.866	645.4
818.262	679.2
818.68	661.8
819.077	665.8
819.495	661.4
819.892	716.8
820.311	652.6
820.708	661
821.127	649.8
821.524	667.6
821.943	669.4
822.34	678.8
822.759	672
823.157	658.6
823.576	677.6
823.974	664.6
824.393	786.4
824.791	659.4
825.189	647
825.609	653.2
826.007	660.6
826.427	646.8
826.826	653
827.246	661.2
827.644	647.6
828.043	666
828.463	657.4
828.862	672
829.261	658.8
829.682	636.4
830.081	671.8
830.502	652.6
830.901	666.2
831.301	649.8
831.722	654.4
832.121	667.8
832.521	649.6
832.943	660
833.342	656.6
833.742	648.2
834.164	663.6
834.564	648
834.965	652
835.386	651.2
835.787	655.4
836.188	647.8
836.588	661.6
837.01	654.6
837.411	657.8
837.812	667.2
838.213	669
838.636	657.4
839.037	736.2
839.438	664.6
839.84	662.2
840.263	672.4
840.664	669.8
841.066	667.8
841.468	661
841.891	653
842.293	667.4
842.695	673.8
843.098	671.2
843.5	660
843.902	668
844.326	661.4
844.729	657.8
845.131	672.8
845.534	662.8
845.937	677.8
846.34	689
846.764	653
847.167	673.8
847.571	650.6
847.974	656
848.377	650.4
848.781	720.6
849.184	672.4
849.588	648.2
849.992	653.8
850.396	659
850.821	684
851.225	662.8
851.63	658
852.034	678.2
852.438	668.4
852.843	707.4
853.247	650.4
853.652	644.6
854.057	674.8
854.462	656.2
854.867	659
855.272	688.6
