#lambda/nm	C1
208.295	543.6
208.67	494.4
209.045	457.2
209.419	455.2
209.794	691.8
210.169	669.8
210.544	813.2
210.919	697.2
211.295	677.2
211.67	696
212.045	698.4
212.421	681.2
212.796	726.6
213.172	688
213.547	687
213.923	692.6
214.299	684.6
214.675	690.2
215.051	688
215.427	698.6
215.803	701.4
216.179	690
216.555	682.2
216.932	701
217.308	696.6
217.684	689.4
218.061	691.4
218.438	693.4
218.814	682.8
219.191	693.6
219.568	678.6
219.945	683.4
220.322	695
220.699	696.6
221.076	694.2
221.453	690.8
221.83	684
222.208	682
222.585	690
222.962	690.8
223.34	700.4
223.717	688.4
224.095	694.4
224.473	695.6
224.851	685.4
225.229	677.4
225.607	700
225.985	689.6
226.363	693.6
226.741	693.8
227.119	688.4
227.497	704
227.876	667
228.254	698.6
228.633	687.2
229.011	689.2
229.39	690.8
229.769	697.6
230.148	699.8
230.527	720.4
230.905	693.8
231.284	691.2
231.664	692.2
232.043	704.8
232.422	698.2
232.801	687.4
233.181	699.4
233.56	686.8
233.94	699.2
234.319	678.4
234.699	684
235.079	746
235.458	733.2
235.838	709.2
236.218	683.6
236.598	688.6
236.978	687.2
237.358	681.6
237.738	678.4
238.119	707.8
238.499	674.4
238.88	691
239.26	707.2
239.641	681.4
240.021	691.8
240.402	688.8
240.783	687.6
241.163	692.2
241.544	692
241.925	688.6
242.306	705.4
242.687	684.4
243.069	694.2
243.45	702.6
243.831	696.4
244.212	689
244.594	737.8
244.975	695.2
245.357	692.6
245.739	683.4
246.12	683.8
246.502	702.2
246.884	684
247.266	683
247.648	691.2
248.03	710.8
248.412	682.4
248.794	690
249.176	685
249.559	696.8
249.941	685
250.323	684.2
250.706	683.2
251.089	689.2
251.471	698
251.854	691
252.237	699
252.62	698.2
253.002	690.8
253.385	689.6
253.769	707.8
254.152	696.6
254.535	697
254.918	687.2
255.301	689.4
255.685	685.6
256.068	684
256.452	717.4
256.835	714
257.219	703.8
257.603	702.8
257.986	687.2
258.37	699.2
258.754	675.4
259.138	694.8
259.522	703.4
259.906	696.6
260.29	698.2
260.675	691.8
261.059	692
261.443	683.2
261.828	698.2
262.212	698.4
262.597	681.4
262.981	684.4
263.366	702
263.751	689.2
264.136	679.6
264.521	693.2
264.906	682.8
265.291	700
265.676	691
266.061	689.4
266.446	699.4
266.831	696.6
267.217	711.4
267.602	683.8
267.987	689.6
268.373	680.8
268.759	698.4
269.144	698.2
269.53	687.8
269.916	683.6
270.302	684.6
270.688	694.4
271.074	690
271.46	704.4
271.846	735.8
272.232	691.4
272.618	692.2
273.004	690.8
273.391	699.2
273.777	706.2
274.164	698
274.55	713.4
274.937	689.4
275.324	691.8
275.71	696
276.097	694.4
276.484	685.8
276.871	695.2
277.258	698.2
277.645	676.4
278.032	686.2
278.419	689.8
278.807	691.8
279.194	688.8
279.581	683.2
279.969	693.4
280.356	690.4
280.744	700.6
281.131	725.8
281.519	700.8
281.907	687.2
282.295	679.8
282.682	691.8
283.07	695.8
283.458	699.6
283.846	700.2
284.235	702.6
284.623	696.2
285.011	685.4
285.399	686
285.788	694
286.176	676.4
286.565	702.2
286.953	676.6
287.342	691.6
287.731	681.4
288.119	677.8
288.508	689.6
288.897	686.8
289.286	683.8
289.675	693.4
290.064	698.2
290.453	684.8
290.821	691.6
291.21	711.2
291.599	687.8
291.989	695
292.378	695
292.768	709.2
293.157	697.6
293.547	696.4
293.936	691
294.326	690.6
294.716	691.4
295.106	684
295.496	696.6
295.886	700.8
296.276	683.6
296.666	690.2
297.056	689.2
297.446	685
297.836	706.4
298.227	688.8
298.617	693.2
299.008	715.8
299.398	691.4
299.789	690.2
300.179	699.8
300.57	707.6
300.961	678.2
301.352	699.6
301.742	704.2
302.133	695.8
302.524	698.2
302.915	702.2
303.307	682.4
303.698	712.2
304.089	696.8
304.48	690.2
304.872	698.4
305.263	698
305.655	690.4
306.046	701.8
306.438	701.2
306.829	688.4
307.221	716.6
307.613	704
308.005	709.4
308.397	708
308.789	715.2
309.181	715.6
309.573	706.6
309.965	715
310.357	702.2
310.749	709.2
311.142	692.4
311.534	694.4
311.926	696.6
312.319	696
312.711	690
313.104	716
313.497	695.4
313.889	740.2
314.282	714.2
314.675	721.6
315.068	693.4
315.461	706
315.854	726.8
316.247	702.2
316.64	698.8
317.033	697.2
317.405	706.2
317.798	691.6
318.192	694.4
318.585	688.4
318.979	702.4
319.372	686.2
319.766	691.2
320.16	715.4
320.553	714.4
320.947	718.6
321.341	689.4
321.735	693.8
322.129	678.4
322.523	725.4
322.917	682
323.311	708.2
323.705	686.8
324.099	707.2
324.494	711.8
324.888	698.4
325.282	691.4
325.677	703.8
326.071	698.6
326.466	693
326.861	697.6
327.255	710.4
327.65	710.2
328.045	716.6
328.44	695.8
328.835	702.6
329.23	691.6
329.625	721.6
330.02	694.8
330.415	726.4
330.81	690.8
331.206	700.4
331.601	687.2
331.996	698.4
332.37	722
332.766	687.4
333.161	725.4
333.557	691.4
333.953	695.2
334.348	1062.4
334.744	697.2
335.14	684.6
335.536	683
335.932	709.6
336.328	698.8
336.724	707
337.12	694.8
337.516	698.4
337.913	696.6
338.309	720.2
338.705	691.2
339.102	705.8
339.498	691
339.895	714
340.291	693.2
340.688	705.4
341.085	692.6
341.481	689.6
341.878	698
342.275	725.8
342.672	678.6
343.069	690.8
343.466	678.6
343.842	703.8
344.239	695.4
344.636	687.2
345.033	681.2
345.431	686.8
345.828	693.2
346.225	689.8
346.623	738
347.02	698
347.418	702.4
347.816	713.6
348.213	683.6
348.611	696
349.009	685.4
349.407	712.4
349.805	676.8
350.203	685.4
350.601	707.2
350.999	695.4
351.397	764.2
351.795	693.4
352.193	702
352.57	703
352.969	699.4
353.367	680.6
353.766	668
354.164	682
354.563	695.6
354.961	686.8
355.36	684.2
355.759	691.8
356.158	685.4
356.557	687
356.956	682.4
357.355	671.6
357.754	689.4
358.153	688.4
358.552	716
358.951	682.8
359.35	704.8
359.75	682
360.149	681.8
360.527	672.6
360.926	681.4
361.326	690.6
361.726	682.4
362.125	675.2
362.525	696.6
362.925	684.2
363.325	695.2
363.724	700.4
364.124	680.6
364.524	686.8
364.924	692.4
365.324	707.6
365.725	672.6
366.125	701.4
366.525	692.2
366.904	670.6
367.304	666.6
367.705	704.8
368.105	712.8
368.506	683.4
368.906	679.8
369.307	683.4
369.708	699.4
370.108	675.4
370.509	705.2
370.91	686.2
371.311	688.2
371.712	692.6
372.113	687.2
372.514	669
372.894	679.6
373.295	678.8
373.696	703.6
374.097	696
374.499	716.8
374.9	691.4
375.301	682.2
375.703	684.2
376.105	678.8
376.506	685.6
376.908	696.2
377.309	690
377.711	688.6
378.113	682.2
378.493	690.6
378.895	681
379.297	696.2
379.699	681
380.102	693.6
380.504	691
380.906	685.4
381.308	721.2
381.71	678
382.113	696.8
382.515	682.8
382.918	694.4
383.299	685.8
383.701	697.4
384.104	681
384.507	668.6
384.909	693.6
385.312	674
385.715	676.8
386.118	690.4
386.521	671.8
386.924	698.4
387.327	675
387.709	669.8
388.112	668.2
388.515	681.6
388.918	682.2
389.322	691.6
389.725	673.8
390.129	699.8
390.532	694.4
390.936	680.8
391.339	673
391.743	688.2
392.125	667.4
392.529	694.8
392.933	698.8
393.337	684.4
393.74	684.4
394.144	686.4
394.548	668.6
394.953	680
395.357	683.8
395.761	682.8
396.144	690.2
396.548	670.4
396.952	682.8
397.357	687.6
397.761	675.8
398.166	680
398.57	687.8
398.975	673.2
399.379	684.2
399.763	747.6
400.168	686.4
400.572	679.2
400.977	684
401.382	716.2
401.787	699.2
402.192	703.6
402.597	702.2
403.002	680.8
403.386	697.4
403.791	702
404.197	681.6
404.602	683.8
405.007	692.2
405.413	684
405.818	688
406.224	676.4
406.608	678.8
407.014	670.4
407.42	703.4
407.825	685.8
408.231	692.2
408.637	691.8
409.043	697.4
409.449	674.6
409.834	678.4
410.24	684.4
410.646	697.8
411.052	695
411.458	686.6
411.865	691
412.271	700.2
412.677	686.8
413.062	689.2
413.469	671.4
413.875	714.6
414.282	697
414.689	685.6
415.095	698.4
415.502	677.6
415.888	691.4
416.294	681.2
416.701	732
417.108	685.4
417.515	699.2
417.923	679.8
418.33	711
418.715	705.6
419.123	686.6
419.53	687
419.937	687.6
420.345	698
420.752	685.2
421.16	707.6
421.546	690
421.953	698
422.361	682.6
422.769	688.6
423.177	684.8
423.585	720.8
423.992	717.8
424.379	702.4
424.787	697
425.195	702.8
425.603	688.4
426.011	707
426.419	704.4
426.806	685.6
427.214	693.4
427.623	705.2
428.031	709.2
428.44	696
428.848	710.8
429.235	709.6
429.644	692.2
430.053	685.2
430.461	711
430.87	717.4
431.279	704.2
431.666	680.6
432.075	695.4
432.484	706.4
432.893	688.6
433.302	714.6
433.711	750.6
434.099	705.6
434.508	683.2
434.918	670
435.327	690
435.737	696
436.125	688.2
436.534	685.4
436.944	689.2
437.353	697.4
437.763	710.6
438.173	677.8
438.561	695.8
438.971	678.2
439.381	684.8
439.791	687.2
440.201	667.6
440.589	698.8
440.999	699.6
441.409	690
441.819	677.6
442.23	705
442.619	692
443.029	691.2
443.439	691.4
443.85	699.8
444.26	708.8
444.649	703.2
445.06	691
445.471	673.2
445.881	693.4
446.292	703.4
446.682	713
447.092	674.2
447.503	741.8
447.914	694
448.325	687.6
448.715	691
449.126	681.2
449.537	685.8
449.948	688.2
450.338	698.2
450.75	699
451.161	688.4
451.572	695.2
451.984	680
452.374	671.8
452.786	679.6
453.197	699
453.609	697.6
453.999	664.6
454.411	674.4
454.823	693
455.235	685.4
455.647	674.8
456.037	694.2
456.449	669.4
456.862	677.2
457.274	682
457.665	667.2
458.077	681.4
458.489	722
458.902	683.8
459.293	682
459.705	685.2
460.118	676
460.53	685
460.921	694.4
461.334	686.8
461.747	685.2
462.16	702.2
462.551	695.8
462.964	691.6
463.377	667.4
463.79	682.2
464.182	691.6
464.595	669.4
465.008	690.6
465.421	688
465.813	680.4
466.226	697
466.64	688.4
467.053	737.8
467.445	701.2
467.859	708.8
468.272	681.6
468.686	696.8
469.078	682.4
469.492	672.6
469.906	689.8
470.298	693.6
470.712	686.2
471.126	749
471.54	667.6
471.933	683.8
472.347	688.6
472.761	684.2
473.175	680.8
473.568	675
473.982	674.8
474.397	687.6
474.79	695.2
475.204	688
475.619	675
476.033	695.4
476.426	692.8
476.841	677.2
477.256	707.8
477.649	679.6
478.064	676.4
478.479	673.4
478.872	675.4
479.287	664.6
479.702	673
480.118	685.6
480.511	685.4
480.927	684.6
481.342	686.4
481.736	690.6
482.151	678.4
482.566	694.6
482.96	686
483.376	701.4
483.792	674.2
484.186	683.4
484.602	677.6
485.017	687.2
485.412	682.4
485.827	694
486.243	675
486.638	715
487.054	693.4
487.47	701.8
487.865	689.2
488.281	680.6
488.697	676
489.092	677.8
489.508	665
489.925	681.8
490.32	660
490.736	689.8
491.153	689.2
491.548	690.6
491.964	695.4
492.381	661.6
492.776	679.4
493.193	685.2
493.61	689.4
494.006	679.8
494.422	684.6
494.84	677.8
495.235	698.6
495.652	677.4
496.069	672.6
496.465	672.8
496.883	684
497.3	713.4
497.696	678.4
498.113	692.4
498.509	668.2
498.927	667.2
499.344	666.4
499.741	669.6
500.158	697
500.576	690.2
500.973	686.4
501.39	662.4
501.787	665
502.205	686
502.623	676.8
503.02	663.8
503.438	667
503.856	669.4
504.253	694.6
504.671	675.2
505.068	668.6
505.486	670.4
505.905	693.8
506.302	674.2
506.72	694.8
507.118	673.2
507.536	680
507.955	677
508.352	678.6
508.771	690.2
509.169	688.2
509.587	670.8
510.006	683.4
510.404	662.6
510.823	664.6
511.221	673
511.64	672.6
512.038	687
512.457	670.6
512.877	673
513.275	673.4
513.694	669
514.092	672.2
514.512	688.8
514.91	680.6
515.33	681.2
515.749	678.6
516.148	679.4
516.568	682.4
516.966	680.2
517.386	670.4
517.785	669.6
518.205	671
518.603	672
519.024	675.8
519.444	680
519.843	681.2
520.263	690.6
520.662	687.8
521.082	672.8
521.481	681.2
521.902	679.4
522.301	680.8
522.722	682.2
523.121	677.2
523.542	677.8
523.963	675.2
524.362	677
524.783	677.2
525.183	676
525.604	676.8
526.003	670.6
526.425	673.2
526.824	688.8
527.246	681.8
527.646	683.2
528.067	675
528.467	674.4
528.888	675.8
529.289	671
529.71	676.6
530.11	675.6
530.532	670.2
530.932	658.4
531.354	659.6
531.755	702
532.176	685.8
532.577	673.6
532.999	682.2
533.4	673.4
533.822	681.4
534.223	681.2
534.645	670
535.046	670.8
535.468	680.2
535.869	696.8
536.292	678.8
536.693	715
537.115	682.4
537.516	661.6
537.939	660
538.34	699.8
538.742	698.6
539.165	682.6
539.566	682.8
539.989	671
540.391	671
540.814	684.2
541.216	672
541.639	671.8
542.041	688.2
542.464	669.6
542.866	672.2
543.268	670.4
543.691	681.4
544.093	683.8
544.517	695.4
544.919	676.4
545.343	712.8
545.745	672
546.147	682.8
546.571	674.2
546.974	660.6
547.398	675.2
547.8	686.4
548.224	660
548.627	673.2
549.03	686.6
549.454	670.4
549.857	662.4
550.281	672.2
550.684	671.4
551.087	684
551.512	679.4
551.915	673
552.34	665.6
552.743	667.2
553.146	683.4
553.571	674
553.975	692.4
554.399	661.6
554.803	732.2
555.207	671.8
555.632	666.6
556.036	686.6
556.461	674.2
556.865	675.6
557.268	667.4
557.694	669.4
558.098	691.4
558.502	679.8
558.927	667.6
559.332	657.8
559.736	671.2
560.162	674.6
560.566	661.2
560.992	669.8
561.396	664.2
561.801	660.4
562.227	652.2
562.631	664.2
563.036	667.6
563.462	673.8
563.867	671.2
564.272	654.2
564.698	672.8
565.103	663.8
565.508	687
565.935	680
566.34	673.2
566.745	693
567.172	669.2
567.577	695
567.982	689.2
568.409	682.8
568.815	662.8
569.22	671.4
569.626	678.4
570.053	657.4
570.459	677.8
570.865	683
571.292	674.4
571.698	675
572.104	653.6
572.531	669.8
572.937	688.2
573.343	663
573.75	671
574.177	676.2
574.583	676.8
574.99	668.8
575.396	671.8
575.824	672.4
576.231	678.8
576.637	664.2
577.065	700.6
577.472	670.8
577.879	670
578.286	685.2
578.714	667.6
579.121	665.2
579.528	674.2
579.935	687.8
580.364	669.6
580.771	658
581.178	665
581.585	681
582.014	676
582.421	668.2
582.829	673.8
583.236	686
583.644	667.6
584.073	673.8
584.481	668.4
584.889	654.8
585.296	676
585.726	671
586.134	658.2
586.542	662.6
586.95	684
587.358	662.4
587.787	672.4
588.196	657.2
588.604	668.2
589.012	670.4
589.421	659.2
589.851	660
590.259	676.2
590.668	661.6
591.076	705.8
591.485	662.4
591.894	667.8
592.324	688.8
592.733	683.6
593.142	657.8
593.551	656.8
593.96	704.4
594.369	667.2
594.8	661.4
595.209	665.2
595.618	644.2
596.028	664
596.437	656
596.847	669.2
597.256	666.2
597.687	670.4
598.097	671
598.507	655.8
598.917	679.6
599.327	675.2
599.736	668.2
600.146	675
600.556	668.4
600.988	678.8
601.398	669.8
601.808	676.6
602.219	658
602.629	673.6
603.039	670.2
603.45	697.4
603.86	667.8
604.271	692.2
604.703	675.2
605.114	668.4
605.525	671.6
605.935	671
606.346	685.8
606.757	671.8
607.168	669.2
607.579	658.4
607.99	682
608.402	673
608.813	680
609.224	666.2
609.636	659.4
610.047	653.4
610.48	668
610.892	674.8
611.303	676.8
611.715	669.4
612.127	660.6
612.539	664
612.95	669.6
613.362	656.2
613.774	654.6
614.186	660.8
614.599	667.8
615.011	671.2
615.423	667
615.835	663
616.248	652.2
616.66	668.8
617.073	643.4
617.485	667.4
617.898	676.4
618.311	666
618.723	674.4
619.136	698.8
619.549	684.8
619.962	693.4
620.375	661.2
620.788	672.6
621.201	656.2
621.614	682.2
622.028	667.8
622.441	673.6
622.854	684
623.268	659.6
623.681	674.4
624.095	669.6
624.509	677.2
624.922	678.2
625.336	657.2
625.728	669
626.142	672.8
626.556	680.8
626.97	677.2
627.384	659
627.799	665.2
628.213	679.6
628.627	663.8
629.041	670.4
629.456	659.2
629.87	666.6
630.285	678.4
630.699	678.4
631.093	669
631.507	682.6
631.922	665
632.337	685.2
632.752	652
633.167	662.2
633.582	661
633.997	657.8
634.412	663.2
634.806	661.8
635.221	652.8
635.637	671.8
636.052	652.2
636.468	661
636.883	678.2
637.299	657.8
637.715	657.2
638.109	665.6
638.525	657
638.941	691.2
639.357	685
639.773	689.8
640.189	660.6
640.584	662.2
641	664.8
641.416	654
641.832	669.4
642.249	672.8
642.665	662.2
643.06	672.6
643.477	683
643.894	650.2
644.31	674
644.727	668.2
645.123	669.4
645.54	657.6
645.957	658.8
646.374	683.2
646.77	676.8
647.187	700.6
647.604	670
648.021	654.4
648.439	653.2
648.835	670.4
649.252	669.6
649.67	668.2
650.088	669.4
650.484	671.2
650.902	668.2
651.32	672.6
651.738	662
652.134	668
652.552	693
652.971	670.4
653.389	667.6
653.786	681
654.204	689
654.622	655.2
655.019	667
655.438	676.6
655.857	671.4
656.275	673.2
656.673	662.2
657.091	750
657.51	663.4
657.908	674.6
658.327	684.2
658.746	650.6
659.144	662.6
659.563	684.8
659.982	676.6
660.38	654.2
660.8	674.8
661.219	683.8
661.617	671.2
662.037	663.6
662.457	682.8
662.855	642.8
663.275	702.2
663.695	669.6
664.094	662.6
664.514	665.4
664.934	656.8
665.333	672
665.753	657.6
666.152	655.2
666.572	658.8
666.993	687.4
667.392	662.8
667.812	661.4
668.212	659.4
668.632	669.6
669.053	664
669.453	674.4
669.874	672
670.273	669.8
670.694	660.2
671.116	675.6
671.515	671
671.937	669.8
672.337	660.2
672.758	655.4
673.158	676.2
673.58	657.8
673.98	681.4
674.402	678.6
674.824	667
675.224	662
675.646	660.4
676.047	660.6
676.469	661.8
676.869	674.2
677.292	666
677.693	653
678.115	661
678.516	668
678.939	672
679.34	665.2
679.762	681.2
680.164	671
680.586	654.4
680.988	660.6
681.411	704.6
681.812	664.8
682.236	662.6
682.637	652.8
683.061	663.6
683.462	678
683.864	666.4
684.288	674.6
684.69	666.6
685.114	671
685.516	682
685.94	653.8
686.342	680.2
686.766	666.6
687.168	667
687.571	685.2
687.995	665.2
688.398	656.6
688.822	664.2
689.225	683.6
689.628	687.8
690.052	661.2
690.456	681.4
690.88	670
691.284	652
691.687	675.4
692.112	657.8
692.515	652.4
692.919	667
693.344	677.2
693.747	675
694.173	658.2
694.577	688.6
694.98	665.8
695.406	664.2
695.81	666.2
696.214	668.4
696.64	675.6
697.044	670.4
697.448	672.8
697.874	667.2
698.279	669.4
698.684	658.6
699.11	658.4
699.514	657.8
699.919	666
700.324	658
700.75	676
701.156	671.6
701.561	685
701.987	662.8
702.393	678.4
702.798	669.4
703.203	661.4
703.63	655.4
704.036	657
704.442	659.6
704.847	657.4
705.274	667
705.68	664.8
706.086	674.8
706.492	652.4
706.92	655
707.326	678.4
707.732	658.8
708.139	653.6
708.545	655.4
708.973	657
709.38	663
709.786	644.8
710.193	681
710.6	662.4
711.028	653.6
711.435	663.2
711.842	659.8
712.249	665.2
712.656	661.2
713.064	666.6
713.492	655
713.9	657.6
714.307	664.8
714.715	667.8
715.123	666.4
715.53	672
715.938	675.4
716.367	661.6
716.775	661.6
717.184	657
717.592	663.4
718	671.6
718.408	699.4
718.816	708.6
719.225	666.2
719.633	664.8
720.042	655.8
720.472	667
720.881	680.8
721.29	666.6
721.699	649.6
722.108	665.8
722.517	667.6
722.926	660.4
723.335	673.8
723.744	665.6
724.154	670.4
724.563	664.2
724.973	673
725.382	666.4
725.792	658.2
726.202	652
726.612	684.8
727.022	662.4
727.432	654.4
779.813	659.8
780.223	712.6
780.634	663.2
781.044	650.6
781.454	661
781.865	681.2
782.276	656
782.686	674.2
783.097	668.6
783.508	665.4
783.919	663.6
784.33	673.8
784.741	680.6
785.152	658.6
785.563	642.8
785.974	662.2
786.386	672.4
786.776	657
787.188	661.8
787.599	649.2
788.011	668
788.423	672
788.835	656.8
789.247	651
789.659	654
790.071	651
790.483	704.6
790.874	652.4
791.286	672.2
791.699	657.6
792.111	662.4
792.524	674.6
792.937	661.4
793.349	655.2
793.741	656.2
794.154	656.8
794.567	675.8
794.98	663
795.393	657.2
795.785	682
796.198	657.8
796.612	674
797.026	664.8
797.439	635.8
797.831	660
798.245	655
798.659	662.2
799.073	657
799.487	646.2
799.88	667.6
800.294	656.2
800.708	664.2
801.123	670.8
801.516	681.8
801.93	653.6
802.345	639.4
802.76	664.6
803.153	672.2
803.568	681.6
803.983	680.2
804.377	667.8
804.792	646.6
805.207	647.2
805.601	661.8
806.016	704.6
806.432	653.8
806.826	705.2
807.242	678.4
807.658	670.8
808.052	651.2
808.468	654.8
808.884	662
809.279	658.8
809.695	677
810.111	688.2
810.506	667.2
810.922	677.6
811.339	657.4
811.734	666.4
812.151	658.2
812.546	653.6
812.963	660.6
813.38	674.4
813.776	654.6
814.193	685.2
814.589	655.4
815.006	667.6
815.402	661.4
815.82	658
816.237	657.8
816.633	664
817.051	655.8
817.448	667.8
817.866	651.8
818.262	686
818.68	660.4
819.077	652.4
819.495	658.8
819.892	698.8
820.311	646.2
820.708	651.6
821.127	658.4
821.524	670.2
821.943	658.6
822.34	676.6
822.759	667.6
823.157	667.6
823.576	679.4
823.974	672.2
824.393	735.6
824.791	662.6
825.189	642.4
825.609	654.4
826.007	663.6
826.427	650.4
826.826	652.2
827.246	663.6
827.644	642.6
828.043	668
828.463	658
828.862	669.6
829.261	671.2
829.682	642.6
830.081	666.2
830.502	656.8
830.901	669.4
831.301	653.2
831.722	643
832.121	654.4
832.521	654.8
832.943	661.6
833.342	658.2
833.742	657
834.164	664
834.564	650.2
834.965	668.6
835.386	648.4
835.787	660.4
836.188	658
836.588	667.8
837.01	654.4
837.411	652
837.812	667.8
838.213	661.6
838.636	666.8
839.037	740.4
839.438	670.4
839.84	666
840.263	659
840.664	670.2
841.066	656.4
841.468	676
841.891	652.4
842.293	672
842.695	663.2
843.098	668.8
843.5	661
843.902	670.6
844.326	663.2
844.729	667.8
845.131	680
845.534	672.8
845.937	658.8
846.34	679.6
846.764	653.6
847.167	663.2
847.571	654.6
847.974	663.2
848.377	655.6
848.781	719
849.184	678.8
849.588	661
849.992	650.8
850.396	659.6
850.821	686
851.225	662.6
851.63	667.6
852.034	677
852.438	652.8
852.843	803.4
853.247	654.2
853.652	655.2
854.057	682.2
854.462	666.6
854.867	661.6
855.272	702.2
855.677	662.8
856.082	646.8
