#lambda/nm	C1
208.295	546.8
208.67	497
209.045	462
209.419	455.8
209.794	696.2
210.169	677.2
210.544	814.4
210.919	700.6
211.295	683.2
211.67	687.4
212.045	689.8
212.421	686.6
212.796	732.4
213.172	687.6
213.547	684.6
213.923	687.8
214.299	682.4
214.675	697.8
215.051	689
215.427	693.6
215.803	708.2
216.179	697.6
216.555	689.8
216.932	688.8
217.308	690.8
217.684	685.8
218.061	696.4
218.438	687.6
218.814	697.4
219.191	698.6
219.568	678.2
219.945	690.2
220.322	700.4
220.699	697.6
221.076	704.4
221.453	696.6
221.83	677
222.208	682.8
222.585	689.6
222.962	693
223.34	699.2
223.717	688
224.095	687.6
224.473	696
224.851	686.2
225.229	673.8
225.607	705.2
225.985	683
226.363	690.8
226.741	689.8
227.119	693.2
227.497	705.4
227.876	673.4
228.254	698.6
228.633	691.8
229.011	693.2
229.39	686.6
229.769	685.4
230.148	701.2
230.527	701.4
230.905	693.2
231.284	694.4
231.664	687.8
232.043	700.2
232.422	699.6
232.801	681.8
233.181	694.4
233.56	691.2
233.94	694.8
234.319	674
234.699	688.6
235.079	739.6
235.458	735
235.838	706.4
236.218	688.8
236.598	669.6
236.978	681.2
237.358	681.6
237.738	686
238.119	693.4
238.499	678
238.88	676.2
239.26	703.8
239.641	675
240.021	681.8
240.402	683.2
240.783	677.2
241.163	688.6
241.544	696.2
241.925	687
242.306	698.8
242.687	681.2
243.069	688.2
243.45	697.6
243.831	690
244.212	683.8
244.594	733.4
244.975	702.6
245.357	696
245.739	687
246.12	687
246.502	702.6
246.884	699.6
247.266	683.2
247.648	691.6
248.03	713.4
248.412	694.8
248.794	703.2
249.176	680
249.559	703.2
249.941	683.6
250.323	680.6
250.706	688
251.089	698.2
251.471	699.4
251.854	691.4
252.237	689.6
252.62	700.2
253.002	687.8
253.385	688
253.769	704.4
254.152	683
254.535	696.6
254.918	680.6
255.301	682
255.685	683.8
256.068	675.6
256.452	713.2
256.835	701.6
257.219	694.2
257.603	703.6
257.986	680
258.37	694.6
258.754	668.6
259.138	695.4
259.522	705.2
259.906	691.8
260.29	693.6
260.675	687.8
261.059	695
261.443	673.4
261.828	695.8
262.212	691.6
262.597	683.4
262.981	683.2
263.366	701.4
263.751	690.4
264.136	689.8
264.521	681.4
264.906	684
265.291	700.6
265.676	684
266.061	699
266.446	710.4
266.831	687.4
267.217	710.4
267.602	694.4
267.987	695.4
268.373	680.8
268.759	701.2
269.144	691.4
269.53	692.8
269.916	678
270.302	685.4
270.688	688
271.074	688.4
271.46	714.4
271.846	720.6
272.232	689
272.618	685.6
273.004	688.8
273.391	690.2
273.777	712
274.164	707
274.55	705
274.937	694.2
275.324	687.8
275.71	688.6
276.097	687.2
276.484	686.6
276.871	696
277.258	705.8
277.645	676.2
278.032	694.6
278.419	682.2
278.807	697.4
279.194	691.4
279.581	680.6
279.969	704.6
280.356	696.2
280.744	695.6
281.131	720.4
281.519	711.8
281.907	689.2
282.295	689.6
282.682	703.2
283.07	692.2
283.458	700.6
283.846	702
284.235	705.6
284.623	709.8
285.011	680.2
285.399	689.8
285.788	693.8
286.176	684.6
286.565	702.8
286.953	686.2
287.342	688.4
287.731	690.2
288.119	692.8
288.508	692.4
288.897	695.8
289.286	676
289.675	697.2
290.064	707.8
290.453	687.6
290.821	696.8
291.21	705.2
291.599	691.2
291.989	693.2
292.378	711.4
292.768	718
293.157	707.2
293.547	708.4
293.936	691.6
294.326	689.4
294.716	698.8
295.106	687.2
295.496	701.8
295.886	701.4
296.276	698.2
296.666	693.2
297.056	689.4
297.446	685.8
297.836	716.2
298.227	687.6
298.617	688.2
299.008	707.2
299.398	685.2
299.789	689.2
300.179	704
300.57	703.6
300.961	688
301.352	692.2
301.742	706.2
302.133	696.6
302.524	695.2
302.915	692.8
303.307	683.4
303.698	700.4
304.089	699.4
304.48	697.2
304.872	703.8
305.263	698.8
305.655	688.4
306.046	697.4
306.438	701.8
306.829	693.2
307.221	710.6
307.613	703.6
308.005	702.6
308.397	712.8
308.789	719
309.181	722
309.573	711
309.965	717
310.357	693
310.749	706.8
311.142	683
311.534	688
311.926	696.8
312.319	688.6
312.711	687.2
313.104	713.6
313.497	692.2
313.889	739.6
314.282	716.2
314.675	728.8
315.068	699
315.461	704.8
315.854	733.4
316.247	707.8
316.64	698
317.033	701
317.405	704.4
317.798	698.6
318.192	697.4
318.585	692
318.979	695.6
319.372	686.6
319.766	684.8
320.16	705.6
320.553	707.8
320.947	719.4
321.341	687.4
321.735	696.6
322.129	674.8
322.523	722.6
322.917	692.2
323.311	706.6
323.705	704
324.099	697
324.494	720.8
324.888	718.8
325.282	699.8
325.677	703.6
326.071	698.8
326.466	704
326.861	703.2
327.255	708.4
327.65	719.2
328.045	714.6
328.44	700.8
328.835	696.8
329.23	693
329.625	715
330.02	691
330.415	722
330.81	695.4
331.206	693.6
331.601	691.2
331.996	708.6
332.37	726.8
332.766	682
333.161	728.2
333.557	693.8
333.953	702.6
334.348	1065.8
334.744	693.8
335.14	693.2
335.536	689.6
335.932	715
336.328	700.4
336.724	704.2
337.12	692.6
337.516	706.4
337.913	696.8
338.309	718.2
338.705	695.2
339.102	699.4
339.498	690.2
339.895	709.2
340.291	685.2
340.688	711.8
341.085	675.4
341.481	691.8
341.878	684.8
342.275	704
342.672	684.6
343.069	685.8
343.466	678.8
343.842	695.6
344.239	677.8
344.636	694.6
345.033	686.6
345.431	685.6
345.828	683.8
346.225	685.4
346.623	727.4
347.02	691
347.418	695.8
347.816	701
348.213	684.4
348.611	696.8
349.009	680.6
349.407	712.2
349.805	680.4
350.203	676
350.601	711.2
350.999	686.8
351.397	751.4
351.795	692.6
352.193	697
352.57	695.8
352.969	705.2
353.367	679.2
353.766	680.8
354.164	691
354.563	711.2
354.961	692.2
355.36	686.4
355.759	685.4
356.158	675.4
356.557	673.4
356.956	683.4
357.355	686.4
357.754	694.8
358.153	697.6
358.552	709
358.951	691.2
359.35	697.4
359.75	682.4
360.149	676.8
360.527	677.6
360.926	677.8
361.326	681
361.726	689.4
362.125	672.6
362.525	689
362.925	692.6
363.325	692.4
363.724	683.4
364.124	675.8
364.524	682.4
364.924	686.4
365.324	699.4
365.725	669.6
366.125	697.2
366.525	688.2
366.904	684
367.304	667.6
367.705	707.4
368.105	696.8
368.506	689.4
368.906	690
369.307	688.6
369.708	688
370.108	677
370.509	698.4
370.91	683.4
371.311	688.6
371.712	684.6
372.113	689.4
372.514	665
372.894	682.4
373.295	677
373.696	698.6
374.097	690.8
374.499	723.6
374.9	685.6
375.301	673.6
375.703	692.4
376.105	665
376.506	690.8
376.908	685
377.309	688.6
377.711	683.4
378.113	683
378.493	677
378.895	678.8
379.297	705.6
379.699	668.4
380.102	693.2
380.504	683.2
380.906	683
381.308	719
381.71	679
382.113	690.6
382.515	685
382.918	697.2
383.299	684.4
383.701	697.2
384.104	691.8
384.507	661.8
384.909	684.6
385.312	681
385.715	679.8
386.118	681.8
386.521	663.4
386.924	691.8
387.327	676.6
387.709	668
388.112	669.4
388.515	688.8
388.918	679.6
389.322	696.2
389.725	680
390.129	705.4
390.532	688
390.936	679
391.339	676
391.743	685.8
392.125	678.6
392.529	697
392.933	694.2
393.337	687
393.74	689
394.144	685.2
394.548	685.6
394.953	691.6
395.357	696.2
395.761	679.2
396.144	688.8
396.548	681.8
396.952	687
397.357	690
397.761	682.6
398.166	679.2
398.57	679.4
398.975	675.4
399.379	683
399.763	741.8
400.168	689
400.572	688
400.977	686.4
401.382	709.4
401.787	695.2
402.192	706.6
402.597	700.4
403.002	672.8
403.386	703.4
403.791	704.8
404.197	682
404.602	698.2
405.007	686.6
405.413	672.2
405.818	691.8
406.224	684
406.608	690
407.014	670.8
407.42	708.4
407.825	686.4
408.231	698.6
408.637	683.4
409.043	701.6
409.449	683
409.834	677.2
410.24	683.8
410.646	703
411.052	703.8
411.458	700.6
411.865	705
412.271	698
412.677	688.6
413.062	696.8
413.469	682.6
413.875	719.6
414.282	700.6
414.689	694.8
415.095	693
415.502	678.2
415.888	702.2
416.294	669.8
416.701	734
417.108	686
417.515	701.8
417.923	683.8
418.33	715.2
418.715	696.6
419.123	687.6
419.53	687
419.937	686.6
420.345	707.6
420.752	680.8
421.16	706.8
421.546	687.2
421.953	698.4
422.361	679.2
422.769	692.6
423.177	686.2
423.585	714.2
423.992	707.4
424.379	705.2
424.787	704
425.195	713.6
425.603	692.4
426.011	696.6
426.419	711.2
426.806	704.2
427.214	693.8
427.623	704.2
428.031	714
428.44	711
428.848	697
429.235	699
429.644	689.4
430.053	690.4
430.461	711
430.87	723.4
431.279	701.6
431.666	678.4
432.075	689.2
432.484	704
432.893	690.2
433.302	722.6
433.711	743.4
434.099	707.6
434.508	681.8
434.918	679.4
435.327	696.2
435.737	694.8
436.125	692
436.534	691.6
436.944	694.6
437.353	692.6
437.763	720.4
438.173	674.6
438.561	703.6
438.971	668.4
439.381	692.6
439.791	685.4
440.201	665.4
440.589	688.6
440.999	696.6
441.409	687.8
441.819	685.6
442.23	706.2
442.619	700.6
443.029	695.2
443.439	700.2
443.85	706.8
444.26	703.6
444.649	697.8
445.06	693.2
445.471	684.6
445.881	690
446.292	712.4
446.682	719.2
447.092	671.4
447.503	756.4
447.914	682.4
448.325	693.6
448.715	693.2
449.126	684.2
449.537	690
449.948	701
450.338	691.2
450.75	698
451.161	697
451.572	710.2
451.984	690.6
452.374	679.8
452.786	690.4
453.197	695.8
453.609	704.8
453.999	683
454.411	679.8
454.823	699
455.235	702.6
455.647	693.6
456.037	695.4
456.449	673.4
456.862	697.8
457.274	707.8
457.665	691.8
458.077	704.8
458.489	735.8
458.902	700
459.293	696.4
459.705	696.2
460.118	701.8
460.53	701.2
460.921	695.2
461.334	696.8
461.747	698
462.16	707.8
462.551	705.8
462.964	706.6
463.377	675.4
463.79	697.4
464.182	703.4
464.595	692.2
465.008	697.8
465.421	708.6
465.813	697.4
466.226	704.6
466.64	692.8
467.053	756.4
467.445	712.2
467.859	729
468.272	707
468.686	710.6
469.078	703.2
469.492	681
469.906	701.6
470.298	707.8
470.712	696.6
471.126	765
471.54	687.6
471.933	696.8
472.347	694.4
472.761	688.8
473.175	695
473.568	697.4
473.982	690.6
474.397	701.6
474.79	700.6
475.204	711
475.619	696
476.033	695.8
476.426	702.4
476.841	689.2
477.256	728.2
477.649	694.4
478.064	682
478.479	692.4
478.872	688.8
479.287	679.8
479.702	686.8
480.118	692.8
480.511	698.8
480.927	697.6
481.342	694.8
481.736	691.2
482.151	692.6
482.566	708
482.96	702.2
483.376	703.2
483.792	695.4
484.186	705.8
484.602	698.8
485.017	694.2
485.412	700.6
485.827	704.4
486.243	695
486.638	734.2
487.054	713
487.47	707.6
487.865	698.8
488.281	690.2
488.697	694.8
489.092	692.8
489.508	686.2
489.925	709.6
490.32	689
490.736	706.8
491.153	713
491.548	707.4
491.964	706.6
492.381	688.6
492.776	703.4
493.193	699.8
493.61	705.6
494.006	694.6
494.422	701.4
494.84	683.6
495.235	713.4
495.652	703.4
496.069	697.2
496.465	679.6
496.883	690.8
497.3	727.4
497.696	694.2
498.113	706
498.509	686.4
498.927	681.8
499.344	689.2
499.741	685.8
500.158	693
500.576	710.8
500.973	699.8
501.39	684.6
501.787	687.4
502.205	692.4
502.623	690
503.02	680.2
503.438	687.2
503.856	689.2
504.253	692.2
504.671	694.2
505.068	685.6
505.486	688.2
505.905	707.6
506.302	686.4
506.72	708.6
507.118	684.4
507.536	689.8
507.955	685.6
508.352	694
508.771	694.2
509.169	707.4
509.587	678.2
510.006	694.4
510.404	673.4
510.823	677
511.221	681.4
511.64	681.6
512.038	707.8
512.457	692.8
512.877	688.4
513.275	689
513.694	690
514.092	680.8
514.512	701.6
514.91	699.6
515.33	691.8
515.749	691.2
516.148	686.4
516.568	696.6
516.966	684.6
517.386	687.8
517.785	690.8
518.205	683.8
518.603	690.4
519.024	678
519.444	687.6
519.843	703.2
520.263	695.4
520.662	692
521.082	687
521.481	688.6
521.902	694
522.301	685.4
522.722	693
523.121	687.2
523.542	680
523.963	682.8
524.362	688.4
524.783	684.2
525.183	682.6
525.604	695.6
526.003	680.6
526.425	684
526.824	699
527.246	690.2
527.646	700
528.067	685
528.467	688
528.888	688.4
529.289	681.6
529.71	683.6
530.11	684.8
530.532	677.8
530.932	669.8
531.354	678.2
531.755	715
532.176	696
532.577	675.4
532.999	689.6
533.4	677.4
533.822	703
534.223	681.6
534.645	675
535.046	671.2
535.468	679.2
535.869	687.2
536.292	668.2
536.693	712
537.115	681.8
537.516	678.4
537.939	679.8
538.34	699.6
538.742	696.2
539.165	685.8
539.566	678.2
539.989	675.8
540.391	675.8
540.814	680.8
541.216	683.2
541.639	682.2
542.041	692.4
542.464	678.8
542.866	668.4
543.268	665.6
543.691	679
544.093	688
544.517	703.2
544.919	674.8
545.343	708.4
545.745	671.8
546.147	680.4
546.571	674.2
546.974	669.2
547.398	684.8
547.8	691.4
548.224	677
548.627	672.4
549.03	679
549.454	672
549.857	663.6
550.281	671.6
550.684	669.2
551.087	684.6
551.512	675.6
551.915	675.2
552.34	675.2
552.743	675.6
553.146	679
553.571	677.2
553.975	695
554.399	666
554.803	728.4
555.207	675
555.632	667.6
556.036	687.4
556.461	670.6
556.865	681.2
557.268	664.8
557.694	667.2
558.098	686
558.502	682.2
558.927	664
559.332	679.2
559.736	678.6
560.162	684.8
560.566	673.2
560.992	680.6
561.396	680.6
561.801	669.2
562.227	671.6
562.631	666.8
563.036	679.2
563.462	688
563.867	672.8
564.272	664.4
564.698	673.4
565.103	662.6
565.508	696.4
565.935	675.8
566.34	668.8
566.745	693.6
567.172	665.2
567.577	699.6
567.982	690.8
568.409	674.4
568.815	668
569.22	673.6
569.626	677.2
570.053	649.2
570.459	676.8
570.865	682.8
571.292	676.2
571.698	672.6
572.104	662.4
572.531	663.6
572.937	690.4
573.343	677.8
573.75	670.2
574.177	674.2
574.583	678
574.99	672.6
575.396	680.2
575.824	681.8
576.231	679.4
576.637	671.4
577.065	709
577.472	663.4
577.879	676.8
578.286	687.8
578.714	660.6
579.121	673.2
579.528	672.2
579.935	678
580.364	668.2
580.771	655.6
581.178	669.6
581.585	679.6
582.014	675.6
582.421	667.4
582.829	673.2
583.236	690.2
583.644	661.8
584.073	669.4
584.481	675.6
584.889	665.2
585.296	680.6
585.726	674.8
586.134	659.2
586.542	671.2
586.95	683
587.358	660.8
587.787	675.8
588.196	659.6
588.604	669
589.012	673.6
589.421	663.8
589.851	660.8
590.259	675.6
590.668	666.4
591.076	715.8
591.485	663.6
591.894	670.2
592.324	685.8
592.733	689.8
593.142	658.6
593.551	668.6
593.96	717.4
594.369	661.2
594.8	665.4
595.209	670
595.618	657.4
596.028	668.6
596.437	660.8
596.847	674.8
597.256	678
597.687	677
598.097	663.4
598.507	654.4
598.917	665.6
599.327	687.6
599.736	678.8
600.146	676.4
600.556	679
600.988	678.2
601.398	671
601.808	689.6
602.219	654.4
602.629	673.2
603.039	676.6
603.45	702.8
603.86	676.8
604.271	687.4
604.703	671.2
605.114	668
605.525	662
605.935	668.2
606.346	700.4
606.757	672.8
607.168	671.2
607.579	659.8
607.99	687.4
608.402	665
608.813	673.2
609.224	661.2
609.636	674
610.047	659.6
610.48	671
610.892	679.6
611.303	680.8
611.715	656.4
612.127	660.2
612.539	669.4
612.95	674.8
613.362	648.2
613.774	659.4
614.186	665.6
614.599	661
615.011	676.2
615.423	666.4
615.835	659.6
616.248	660.6
616.66	671
617.073	657.6
617.485	672.2
617.898	678.2
618.311	665
618.723	675.2
619.136	692.6
619.549	684.4
619.962	691
620.375	661.6
620.788	677.2
621.201	663.4
621.614	677.6
622.028	675
622.441	673.6
622.854	683.8
623.268	661.8
623.681	664.8
624.095	674
624.509	675.2
624.922	678.8
625.336	656.6
625.728	669.4
626.142	681
626.556	688.6
626.97	676.8
627.384	665.8
627.799	669.4
628.213	688.8
628.627	666
629.041	664
629.456	666.6
629.87	670.2
630.285	676.8
630.699	682.4
631.093	671
631.507	673.8
631.922	670.6
632.337	682.8
632.752	655.6
633.167	668.4
633.582	673.4
633.997	664.8
634.412	660
634.806	668.8
635.221	652.2
635.637	683
636.052	659.8
636.468	671.4
636.883	692.4
637.299	655.6
637.715	649.2
638.109	663.6
638.525	657.8
638.941	667.6
639.357	666
639.773	681.4
640.189	662.4
640.584	672
641	667.6
641.416	645.4
641.832	667.6
642.249	668.8
642.665	666.8
643.06	675.2
643.477	680.4
643.894	649.4
644.31	667.6
644.727	670.2
645.123	664.8
645.54	657
645.957	670.2
646.374	689
646.77	665.2
647.187	695.2
647.604	667.4
648.021	649.4
648.439	666
648.835	670.4
649.252	672.6
649.67	668.2
650.088	662
650.484	678.6
650.902	668.2
651.32	680.2
651.738	663.6
652.134	673
652.552	686.2
652.971	674
653.389	666.8
653.786	679.4
654.204	688.4
654.622	658.8
655.019	657.4
655.438	671.6
655.857	670
656.275	666.6
656.673	658
657.091	751.4
657.51	654.8
657.908	670.6
658.327	676.8
658.746	653.8
659.144	652
659.563	682.4
659.982	669.2
660.38	647.2
660.8	659.6
661.219	678.2
661.617	663.4
662.037	668.4
662.457	678.4
662.855	653.2
663.275	694.4
663.695	660.8
664.094	663.6
664.514	673.6
664.934	664.2
665.333	672.4
665.753	664
666.152	662.6
666.572	664.2
666.993	681
667.392	661
667.812	665.4
668.212	664.2
668.632	676.6
669.053	658
669.453	670.6
669.874	663.4
670.273	671.4
670.694	658.8
671.116	676.2
671.515	673.2
671.937	665.8
672.337	659.4
672.758	667.4
673.158	671.8
673.58	655.2
673.98	670.8
674.402	686.4
674.824	667.2
675.224	658.6
675.646	658.2
676.047	656
676.469	668.4
676.869	669.2
677.292	672.2
677.693	662.4
678.115	660.2
678.516	674
678.939	673
679.34	664.4
679.762	677.8
680.164	671.6
680.586	656.4
680.988	674.8
681.411	705.2
681.812	665.6
682.236	659.2
682.637	650.8
683.061	655.6
683.462	673.6
683.864	665.4
684.288	675.6
684.69	665.4
685.114	674
685.516	673
685.94	659.6
686.342	668.8
686.766	656
687.168	657
687.571	687.2
687.995	657.2
688.398	651
688.822	659.8
689.225	686.6
689.628	680.8
690.052	655.2
690.456	669.8
690.88	661.2
691.284	655.4
691.687	675.4
692.112	659.4
692.515	662.6
692.919	656.4
693.344	666.6
693.747	666.8
694.173	664.6
694.577	675.4
694.98	665.4
695.406	663.4
695.81	676.6
696.214	671
696.64	671.8
697.044	665
697.448	676.8
697.874	659.2
698.279	663.8
698.684	657.8
699.11	661.8
699.514	663.6
699.919	671.2
700.324	653.4
700.75	664.4
701.156	663.6
701.561	677.6
701.987	668.8
702.393	682.6
702.798	684.2
703.203	672.2
703.63	656
704.036	659
704.442	659.4
704.847	656.6
705.274	665.6
705.68	672.8
706.086	682.2
706.492	653.8
706.92	667.8
707.326	676.2
707.732	671
708.139	652.6
708.545	652.8
708.973	663.4
709.38	671.8
709.786	656.8
710.193	676.4
710.6	673
711.028	667.2
711.435	667.8
711.842	663
712.249	658.4
712.656	659.6
713.064	675
713.492	654.8
713.9	661
714.307	670.6
714.715	660.2
715.123	664.8
715.53	672.2
715.938	681.8
716.367	660
716.775	659.4
717.184	655
717.592	663.8
718	670.4
718.408	712.6
718.816	711.4
719.225	669.2
719.633	673.8
720.042	664
720.472	664.6
720.881	692.8
721.29	667
721.699	653.6
722.108	670.8
722.517	672
722.926	664.6
723.335	679.8
723.744	660
724.154	666
724.563	657.2
724.973	664.6
725.382	663.8
725.792	663.4
726.202	653.6
726.612	684.8
727.022	669.6
727.432	665
779.813	659.4
780.223	712.6
780.634	662.8
781.044	662.2
781.454	662.4
781.865	687
782.276	650.8
782.686	669
783.097	665.8
783.508	662
783.919	678
784.33	675.8
784.741	682.4
785.152	656
785.563	657.2
785.974	649
786.386	670.4
786.776	665
787.188	665.4
787.599	649.8
788.011	658.4
788.423	666.6
788.835	672.8
789.247	655.8
789.659	658
790.071	652.8
790.483	709
790.874	654.4
791.286	669.4
791.699	651.4
792.111	664.8
792.524	670.2
792.937	659.4
793.349	644.8
793.741	661
794.154	652
794.567	692
794.98	653.2
795.393	658.8
795.785	681.6
796.198	657.8
796.612	665
797.026	656.4
797.439	653.8
797.831	655.6
798.245	649.6
798.659	646.8
799.073	659.8
799.487	661.8
799.88	667.4
800.294	657
800.708	672
801.123	657.6
801.516	692.8
801.93	657.8
802.345	651.8
802.76	660
803.153	677
803.568	680
803.983	676
804.377	674.8
804.792	638
805.207	653.6
805.601	665.6
806.016	700
806.432	656.6
806.826	697.6
807.242	685
807.658	671.8
808.052	650.6
808.468	650
808.884	657.6
809.279	666.4
809.695	672.6
810.111	684.6
810.506	661.2
810.922	679.6
811.339	654.4
811.734	666.6
812.151	655.2
812.546	655.4
812.963	651.4
813.38	660.4
813.776	660.4
814.193	688
814.589	643.2
815.006	651.4
815.402	658.4
815.82	657.8
816.237	663.8
816.633	658.6
817.051	651.8
817.448	660.6
817.866	653.2
818.262	682.2
818.68	649.2
819.077	656
819.495	662
819.892	703.8
820.311	644.8
820.708	650.4
821.127	657
821.524	668.4
821.943	660.6
822.34	677.2
822.759	664.2
823.157	659.4
823.576	673.4
823.974	656.8
824.393	795
824.791	661.8
825.189	656
825.609	652.8
826.007	655.2
826.427	644.4
826.826	659.8
827.246	666.4
827.644	638.6
828.043	673.4
828.463	659
828.862	668.4
829.261	662
829.682	653
830.081	668.2
830.502	654.6
830.901	665.2
831.301	646.4
831.722	650.6
832.121	657.4
832.521	656.8
832.943	664
833.342	649.2
833.742	649.4
834.164	655.8
834.564	655.2
834.965	666.4
835.386	656
835.787	659.8
836.188	656
836.588	668
837.01	657.6
837.411	644.6
837.812	670.6
838.213	675.2
838.636	658.8
839.037	734
839.438	671.2
839.84	663.6
840.263	668.8
840.664	665.2
841.066	658.4
841.468	656.6
841.891	658.4
842.293	675
842.695	681.8
843.098	667.6
843.5	658.6
843.902	663.8
844.326	670.4
844.729	665.2
845.131	665.4
845.534	667.2
845.937	677
846.34	685.2
846.764	645.4
847.167	666.2
847.571	655.4
847.974	662.4
848.377	659.4
848.781	716.6
849.184	675
849.588	655.4
849.992	654.2
850.396	666.6
850.821	684
851.225	679
851.63	654.8
852.034	676
852.438	662.6
852.843	800.6
853.247	645.6
853.652	662.6
854.057	681.8
854.462	658.6
854.867	667.8
855.272	697.6
855.677	668.2
856.082	662.4
