#lambda/nm	C1
208.295	543.4
208.67	492.4
209.045	450
209.419	452
209.794	693.8
210.169	674.6
210.544	814
210.919	698.2
211.295	678.4
211.67	696
212.045	701.8
212.421	681.2
212.796	730.4
213.172	684.2
213.547	679.8
213.923	688.4
214.299	678.6
214.675	696.2
215.051	698.4
215.427	701.4
215.803	718.8
216.179	701.8
216.555	690.2
216.932	702.6
217.308	696.6
217.684	690.6
218.061	694
218.438	691.8
218.814	679.4
219.191	687.8
219.568	683.2
219.945	690.2
220.322	692.8
220.699	693.4
221.076	698.8
221.453	694
221.83	676.2
222.208	683.2
222.585	687.6
222.962	698
223.34	687
223.717	694.6
224.095	688.8
224.473	694.8
224.851	684.6
225.229	675.8
225.607	708.2
225.985	679.2
226.363	695
226.741	685.2
227.119	691.2
227.497	696.8
227.876	677.6
228.254	691.8
228.633	694.8
229.011	691.6
229.39	691.4
229.769	686.2
230.148	698.6
230.527	709.2
230.905	690
231.284	694.6
231.664	679.2
232.043	696
232.422	704.2
232.801	680.6
233.181	700.6
233.56	697.2
233.94	697.4
234.319	687.8
234.699	688.4
235.079	741.6
235.458	735
235.838	710.6
236.218	690.2
236.598	680.6
236.978	688.6
237.358	685.2
237.738	684.2
238.119	702.8
238.499	675.6
238.88	691.6
239.26	708.4
239.641	686.8
240.021	689
240.402	694.2
240.783	687.4
241.163	686.8
241.544	697
241.925	689.2
242.306	713.4
242.687	680.4
243.069	688.2
243.45	693.6
243.831	687.2
244.212	692.4
244.594	735
244.975	705.4
245.357	692.6
245.739	686.6
246.12	691.2
246.502	709.2
246.884	696.4
247.266	682.2
247.648	694.4
248.03	707
248.412	694.2
248.794	699
249.176	678.6
249.559	700.4
249.941	680
250.323	670.8
250.706	684.6
251.089	688.4
251.471	693.8
251.854	677.4
252.237	690.6
252.62	704.6
253.002	691.8
253.385	689.8
253.769	709.8
254.152	692.4
254.535	699
254.918	694
255.301	684.8
255.685	689.2
256.068	679
256.452	711.8
256.835	705.6
257.219	698.4
257.603	708.4
257.986	680.2
258.37	690.8
258.754	674.4
259.138	697.4
259.522	705.6
259.906	689.8
260.29	698.2
260.675	690
261.059	699.8
261.443	685
261.828	698.6
262.212	692.8
262.597	677.4
262.981	691.6
263.366	693.8
263.751	695.6
264.136	684.8
264.521	690.8
264.906	687.6
265.291	706.8
265.676	688.8
266.061	689.8
266.446	710.8
266.831	695.6
267.217	703.6
267.602	685.2
267.987	694
268.373	676.4
268.759	704.4
269.144	697.8
269.53	680.2
269.916	691.8
270.302	685.2
270.688	692.8
271.074	694.2
271.46	699.8
271.846	722
272.232	690.2
272.618	681.2
273.004	691
273.391	704.4
273.777	715.2
274.164	694.6
274.55	701.6
274.937	692.8
275.324	689.8
275.71	708.2
276.097	700.2
276.484	681.4
276.871	690.2
277.258	696.2
277.645	686
278.032	688.8
278.419	688
278.807	684.6
279.194	676.4
279.581	683.2
279.969	699
280.356	697.4
280.744	685.2
281.131	730.4
281.519	714
281.907	690.2
282.295	692
282.682	708.2
283.07	694.4
283.458	699
283.846	707.4
284.235	710
284.623	707.4
285.011	682.2
285.399	693.8
285.788	695
286.176	679.6
286.565	707.6
286.953	689.6
287.342	690.8
287.731	684.8
288.119	687.2
288.508	687.2
288.897	694.4
289.286	679.4
289.675	699.8
290.064	697.4
290.453	691.6
290.821	681.4
291.21	705.8
291.599	689.8
291.989	694.6
292.378	705
292.768	710.2
293.157	697.4
293.547	694
293.936	687.6
294.326	698.6
294.716	689.4
295.106	698.4
295.496	704.2
295.886	695.2
296.276	688.2
296.666	679.6
297.056	686.2
297.446	680.8
297.836	708.6
298.227	689.8
298.617	697.8
299.008	709.8
299.398	684.4
299.789	684.4
300.179	699.6
300.57	704
300.961	692.4
301.352	692.6
301.742	706.2
302.133	689.2
302.524	696.4
302.915	695
303.307	689.6
303.698	709
304.089	703
304.48	691.8
304.872	701.2
305.263	689.8
305.655	689.8
306.046	700.4
306.438	701.4
306.829	686.2
307.221	712.2
307.613	698.8
308.005	710.4
308.397	712.6
308.789	715.2
309.181	728.6
309.573	711.2
309.965	703.8
310.357	697.4
310.749	710.6
311.142	693.2
311.534	688
311.926	702
312.319	693.6
312.711	690.6
313.104	708.8
313.497	682
313.889	735.2
314.282	716.8
314.675	716.4
315.068	695.4
315.461	700.4
315.854	725.8
316.247	703.6
316.64	695.4
317.033	693.6
317.405	709
317.798	691
318.192	694.8
318.585	688.4
318.979	693
319.372	682.8
319.766	692.8
320.16	712.4
320.553	717.2
320.947	720
321.341	691.6
321.735	699.2
322.129	684.2
322.523	731.8
322.917	682.2
323.311	711.2
323.705	695.2
324.099	705.8
324.494	708.8
324.888	707.8
325.282	694
325.677	703.6
326.071	699.4
326.466	710
326.861	706.6
327.255	705.4
327.65	709.4
328.045	710.2
328.44	697.6
328.835	693.6
329.23	688.2
329.625	724.4
330.02	689.4
330.415	716
330.81	684.6
331.206	702.2
331.601	688
331.996	701.2
332.37	723
332.766	683.8
333.161	721.2
333.557	685
333.953	688.8
334.348	1145.8
334.744	689.6
335.14	691.8
335.536	695.6
335.932	713.8
336.328	697.4
336.724	713
337.12	695.8
337.516	702.2
337.913	704.8
338.309	708.2
338.705	693
339.102	711.2
339.498	693.2
339.895	716.8
340.291	695.8
340.688	708.2
341.085	694.2
341.481	697.4
341.878	691.6
342.275	721.6
342.672	689.4
343.069	693.4
343.466	678.6
343.842	701.6
344.239	683.4
344.636	692.2
345.033	693
345.431	690.2
345.828	694.6
346.225	689.2
346.623	735.4
347.02	692.4
347.418	703.4
347.816	723.8
348.213	685.6
348.611	704
349.009	684.6
349.407	699.8
349.805	694.2
350.203	674.6
350.601	713.2
350.999	694.8
351.397	752.6
351.795	692.4
352.193	701.2
352.57	687.8
352.969	700
353.367	676.2
353.766	677
354.164	692
354.563	699.6
354.961	686
355.36	675.8
355.759	692
356.158	674
356.557	678.4
356.956	674.2
357.355	680.2
357.754	698
358.153	697.8
358.552	714
358.951	684.2
359.35	697
359.75	684.4
360.149	672.4
360.527	672.8
360.926	686.8
361.326	684.4
361.726	685.8
362.125	679
362.525	704
362.925	684
363.325	692.2
363.724	692
364.124	680.6
364.524	689
364.924	688
365.324	704.4
365.725	671.2
366.125	704.6
366.525	692.2
366.904	678.4
367.304	677.4
367.705	705.8
368.105	711.4
368.506	692.8
368.906	693
369.307	688.6
369.708	693.6
370.108	670.8
370.509	699.2
370.91	675.2
371.311	684.4
371.712	684.8
372.113	677.6
372.514	677.8
372.894	686.6
373.295	674.2
373.696	695.6
374.097	690.8
374.499	726.2
374.9	702.4
375.301	676.4
375.703	691.6
376.105	674
376.506	698.6
376.908	690.8
377.309	686
377.711	699.2
378.113	678
378.493	684.2
378.895	672.6
379.297	694.6
379.699	678.4
380.102	689.6
380.504	687.4
380.906	681.4
381.308	713.6
381.71	684
382.113	693
382.515	677.6
382.918	689.2
383.299	681.8
383.701	702
384.104	686.8
384.507	668
384.909	680.6
385.312	669.4
385.715	670.2
386.118	681.4
386.521	675.6
386.924	699.6
387.327	674.4
387.709	674.6
388.112	671
388.515	696
388.918	680.6
389.322	686.4
389.725	682.8
390.129	713.8
390.532	686.4
390.936	677
391.339	687.2
391.743	696
392.125	682
392.529	702.2
392.933	686.2
393.337	681.2
393.74	684.4
394.144	680.2
394.548	672.6
394.953	675.4
395.357	689.6
395.761	680.8
396.144	681.6
396.548	679.6
396.952	683.6
397.357	689.8
397.761	684
398.166	675.8
398.57	681.6
398.975	678.8
399.379	695
399.763	741.8
400.168	685.4
400.572	687.8
400.977	692.8
401.382	716.6
401.787	698.2
402.192	711
402.597	699.4
403.002	675
403.386	697
403.791	703.2
404.197	680.4
404.602	689.4
405.007	688.2
405.413	682.2
405.818	684.2
406.224	684.2
406.608	687.8
407.014	676.2
407.42	696
407.825	685
408.231	696.2
408.637	697.8
409.043	699.6
409.449	673.4
409.834	677.4
410.24	688.6
410.646	694.8
411.052	689
411.458	693.8
411.865	691.8
412.271	692.4
412.677	695.4
413.062	694
413.469	675.8
413.875	715.2
414.282	700.8
414.689	700.2
415.095	697
415.502	678
415.888	690.4
416.294	676
416.701	742.6
417.108	681.6
417.515	694.2
417.923	687
418.33	714.6
418.715	698.2
419.123	676
419.53	682
419.937	680.8
420.345	698
420.752	683.4
421.16	698.2
421.546	681.6
421.953	701.6
422.361	677
422.769	686.2
423.177	675
423.585	710.4
423.992	711.6
424.379	701.8
424.787	694.6
425.195	712.2
425.603	696.4
426.011	702.2
426.419	709.8
426.806	686.8
427.214	693
427.623	712.4
428.031	706.4
428.44	691.8
428.848	705.6
429.235	710.4
429.644	699.4
430.053	692
430.461	707.4
430.87	716.8
431.279	702.6
431.666	691
432.075	689.2
432.484	690.8
432.893	681.4
433.302	709.4
433.711	742.8
434.099	695.8
434.508	685.2
434.918	675.2
435.327	694.8
435.737	699
436.125	688.8
436.534	695.2
436.944	690.8
437.353	693.4
437.763	711.8
438.173	679.6
438.561	703
438.971	667.8
439.381	681.4
439.791	690.8
440.201	662.2
440.589	695.2
440.999	695
441.409	698.4
441.819	672
442.23	709.2
442.619	699.6
443.029	689.6
443.439	691.4
443.85	704.2
444.26	710.8
444.649	696.4
445.06	691.4
445.471	685.4
445.881	694.2
446.292	708.6
446.682	710.4
447.092	679.2
447.503	744.6
447.914	691.4
448.325	694
448.715	701.4
449.126	677.6
449.537	695.8
449.948	699.8
450.338	693.6
450.75	697.8
451.161	687.4
451.572	702
451.984	675.8
452.374	672.2
452.786	693.2
453.197	695.6
453.609	707.4
453.999	674.8
454.411	670.2
454.823	705.2
455.235	679.4
455.647	681
456.037	689.8
456.449	669.6
456.862	688
457.274	684.4
457.665	671.6
458.077	692.6
458.489	716.6
458.902	677.8
459.293	689.4
459.705	681.6
460.118	675
460.53	678.4
460.921	681.2
461.334	692.8
461.747	682.6
462.16	695.4
462.551	696.6
462.964	688.4
463.377	671.4
463.79	678.2
464.182	695.4
464.595	675.6
465.008	683.4
465.421	698.2
465.813	686.4
466.226	697.8
466.64	685.6
467.053	744.4
467.445	695.6
467.859	703
468.272	693.8
468.686	698
469.078	696.6
469.492	674.8
469.906	695.6
470.298	701.8
470.712	680.8
471.126	751.8
471.54	671.2
471.933	677
472.347	674.8
472.761	683.4
473.175	686.4
473.568	678.6
473.982	674.2
474.397	681
474.79	675.8
475.204	685.8
475.619	676.8
476.033	680
476.426	680.6
476.841	674.4
477.256	716.2
477.649	684.4
478.064	675
478.479	675.6
478.872	683.4
479.287	667
479.702	679.2
480.118	677
480.511	682.8
480.927	685
481.342	676.8
481.736	686
482.151	674.8
482.566	699
482.96	683.8
483.376	690.2
483.792	687.6
484.186	687.2
484.602	678.2
485.017	686.6
485.412	679.4
485.827	688.6
486.243	681.8
486.638	713.6
487.054	695.4
487.47	707
487.865	676.6
488.281	685.4
488.697	676.6
489.092	677.4
489.508	679
489.925	692
490.32	670.2
490.736	689.2
491.153	692.8
491.548	684.6
491.964	700.6
492.381	658.8
492.776	689
493.193	691.4
493.61	687.6
494.006	679.4
494.422	690.8
494.84	676.6
495.235	692.8
495.652	691.2
496.069	681
496.465	669.8
496.883	680.8
497.3	712
497.696	681
498.113	687.8
498.509	659.8
498.927	672.4
499.344	680.6
499.741	664.2
500.158	695
500.576	697
500.973	674.8
501.39	664.8
501.787	672
502.205	679.4
502.623	677.2
503.02	666.8
503.438	682.4
503.856	678.2
504.253	685.8
504.671	683.6
505.068	674.8
505.486	679
505.905	695.2
506.302	682.8
506.72	695
507.118	667.8
507.536	677.8
507.955	665.2
508.352	680.8
508.771	682
509.169	689.4
509.587	675.4
510.006	680
510.404	668.2
510.823	671.6
511.221	683.4
511.64	680.4
512.038	697.2
512.457	671.2
512.877	676
513.275	668.8
513.694	671.2
514.092	677.6
514.512	689
514.91	674.8
515.33	676.2
515.749	685.8
516.148	683.4
516.568	686
516.966	678.2
517.386	656.2
517.785	683.4
518.205	671.4
518.603	666
519.024	666.4
519.444	680.6
519.843	689.4
520.263	683.6
520.662	681.4
521.082	682.8
521.481	678.6
521.902	674.8
522.301	674.2
522.722	675.6
523.121	675
523.542	669.6
523.963	676.4
524.362	676.4
524.783	673.8
525.183	671.8
525.604	676.4
526.003	669.8
526.425	671.6
526.824	681.6
527.246	682.8
527.646	682.6
528.067	676.6
528.467	676.4
528.888	679.6
529.289	675
529.71	676.8
530.11	679.2
530.532	672.4
530.932	664
531.354	656.8
531.755	718.6
532.176	682.6
532.577	675
532.999	680.8
533.4	670
533.822	679.4
534.223	687.8
534.645	682.6
535.046	675.4
535.468	676.6
535.869	707.8
536.292	673.2
536.693	717.2
537.115	669.4
537.516	663
537.939	669.2
538.34	700
538.742	691.8
539.165	673
539.566	669
539.989	671.4
540.391	675.8
540.814	675.6
541.216	669
541.639	677.6
542.041	681
542.464	674.2
542.866	660.6
543.268	665.4
543.691	681.4
544.093	687.4
544.517	694.2
544.919	664.2
545.343	705.4
545.745	668.2
546.147	684.2
546.571	670
546.974	666.2
547.398	676.6
547.8	685.2
548.224	682
548.627	665.8
549.03	677.4
549.454	667
549.857	659.6
550.281	669.6
550.684	664.6
551.087	688
551.512	682.4
551.915	680.6
552.34	669
552.743	667
553.146	675.6
553.571	664
553.975	692.4
554.399	664
554.803	729.8
555.207	671.6
555.632	670.6
556.036	684
556.461	668.4
556.865	678.6
557.268	665.2
557.694	671.8
558.098	681.8
558.502	680.8
558.927	677.4
559.332	676
559.736	671
560.162	683.4
560.566	672
560.992	673.8
561.396	664.4
561.801	674.8
562.227	672.2
562.631	663.6
563.036	659
563.462	679
563.867	664.2
564.272	652.8
564.698	667.8
565.103	658.8
565.508	690.2
565.935	670.2
566.34	676
566.745	692.8
567.172	656.4
567.577	695.4
567.982	683.8
568.409	681.8
568.815	656.6
569.22	668.4
569.626	675.4
570.053	663
570.459	671.8
570.865	675.2
571.292	681.2
571.698	674.6
572.104	654.2
572.531	655
572.937	680
573.343	667.4
573.75	664.2
574.177	673
574.583	686.8
574.99	667.2
575.396	679.2
575.824	674.4
576.231	668.4
576.637	666.8
577.065	696.4
577.472	671.2
577.879	674.8
578.286	688
578.714	668.8
579.121	671.4
579.528	674.6
579.935	683.4
580.364	665.6
580.771	651.4
581.178	658.2
581.585	678.4
582.014	673.6
582.421	661.2
582.829	667
583.236	687.4
583.644	666.8
584.073	667
584.481	670.2
584.889	672.2
585.296	672.6
585.726	665.2
586.134	658.8
586.542	663.6
586.95	695.2
587.358	662.6
587.787	674
588.196	665
588.604	671.6
589.012	667.4
589.421	656.4
589.851	655.6
590.259	668.4
590.668	657.4
591.076	708.6
591.485	666.6
591.894	677
592.324	684.8
592.733	686.2
593.142	655.4
593.551	673
593.96	707.6
594.369	656.8
594.8	656
595.209	674
595.618	654.8
596.028	662.2
596.437	663
596.847	678.8
597.256	678.2
597.687	676.2
598.097	670.2
598.507	665.2
598.917	676
599.327	670.6
599.736	677.2
600.146	681.8
600.556	677.6
600.988	687.8
601.398	660.8
601.808	683.6
602.219	655.6
602.629	669
603.039	672.6
603.45	692.6
603.86	663.2
604.271	685.4
604.703	676.6
605.114	672.2
605.525	670.6
605.935	683.6
606.346	698.6
606.757	685.8
607.168	670.2
607.579	664
607.99	693.8
608.402	669.4
608.813	678.6
609.224	663.2
609.636	656
610.047	659.6
610.48	674.6
610.892	671.8
611.303	680
611.715	670
612.127	659.2
612.539	669.6
612.95	669.6
613.362	650.6
613.774	660.6
614.186	658.8
614.599	663.4
615.011	672.6
615.423	676
615.835	652.6
616.248	658
616.66	678
617.073	662
617.485	661.2
617.898	674
618.311	671.8
618.723	658.6
619.136	700
619.549	684.8
619.962	701.8
620.375	665.2
620.788	674.6
621.201	658.2
621.614	682.4
622.028	667.4
622.441	675.4
622.854	689.6
623.268	658.6
623.681	672.8
624.095	668
624.509	676.8
624.922	680.4
625.336	658.2
625.728	667.6
626.142	679.2
626.556	686.6
626.97	676.4
627.384	670.8
627.799	666.8
628.213	668.8
628.627	667.4
629.041	666.4
629.456	664.8
629.87	667
630.285	680.8
630.699	683.2
631.093	669.6
631.507	674.4
631.922	666.4
632.337	685
632.752	658.2
633.167	670.2
633.582	665
633.997	654.8
634.412	656.2
634.806	664.4
635.221	654
635.637	672.6
636.052	656.4
636.468	674.8
636.883	689.8
637.299	660.4
637.715	648.2
638.109	667.2
638.525	652.4
638.941	682.4
639.357	672.8
639.773	687.8
640.189	659.8
640.584	662.4
641	669.2
641.416	647.4
641.832	662.8
642.249	667.8
642.665	657.6
643.06	666.8
643.477	675.2
643.894	650.4
644.31	666.8
644.727	669.4
645.123	658
645.54	659.8
645.957	667.8
646.374	683.2
646.77	670.6
647.187	690.8
647.604	676.6
648.021	655.2
648.439	663.6
648.835	665
649.252	669.4
649.67	662.8
650.088	661.2
650.484	666.8
650.902	674.6
651.32	678.6
651.738	663.6
652.134	669.8
652.552	687.2
652.971	678
653.389	667.2
653.786	683.8
654.204	685.8
654.622	660
655.019	674.6
655.438	668.4
655.857	669
656.275	664.8
656.673	654
657.091	755.2
657.51	669
657.908	666.6
658.327	689.8
658.746	661.4
659.144	658.6
659.563	671.8
659.982	672
660.38	658
660.8	665
661.219	675.8
661.617	676.8
662.037	666.8
662.457	688.6
662.855	654.4
663.275	704.4
663.695	654.6
664.094	663.2
664.514	669.8
664.934	659.2
665.333	670
665.753	665.2
666.152	658.2
666.572	654
666.993	676.2
667.392	655.4
667.812	656
668.212	663.2
668.632	672.8
669.053	654.2
669.453	663
669.874	659.6
670.273	673.6
670.694	666.2
671.116	686.6
671.515	674.6
671.937	669.2
672.337	666
672.758	657.4
673.158	671.8
673.58	654.6
673.98	671
674.402	691.8
674.824	660.2
675.224	656.6
675.646	656.2
676.047	662.6
676.469	663.2
676.869	667.4
677.292	670
677.693	662.4
678.115	663.2
678.516	675.4
678.939	667.2
679.34	660.6
679.762	683.8
680.164	668.4
680.586	652.6
680.988	662
681.411	694.8
681.812	658.6
682.236	660.4
682.637	656.8
683.061	659.8
683.462	675
683.864	669.2
684.288	671.4
684.69	650.2
685.114	674.4
685.516	673
685.94	663.8
686.342	672.8
686.766	659
687.168	656.8
687.571	691.8
687.995	673.2
688.398	651
688.822	652.2
689.225	688.4
689.628	686
690.052	657.6
690.456	675.4
690.88	672.2
691.284	651.4
691.687	678.4
692.112	647.2
692.515	664.8
692.919	659.4
693.344	674.2
693.747	663
694.173	659
694.577	675.6
694.98	657.4
695.406	660.2
695.81	677.2
696.214	670.2
696.64	674.6
697.044	669
697.448	682.2
697.874	665
698.279	659.2
698.684	664
699.11	661.8
699.514	662.2
699.919	664.2
700.324	642.6
700.75	670.4
701.156	674.8
701.561	681.8
701.987	668.2
702.393	668.8
702.798	678.4
703.203	658.2
703.63	654
704.036	664.8
704.442	675.4
704.847	654.2
705.274	662
705.68	666.6
706.086	666.2
706.492	655
706.92	665.6
707.326	673.4
707.732	655.6
708.139	658.6
708.545	656.8
708.973	656
709.38	662.8
709.786	642.4
710.193	674.8
710.6	669.8
711.028	654.4
711.435	658.2
711.842	663.2
712.249	655.4
712.656	663.6
713.064	672.6
713.492	656.2
713.9	666.6
714.307	658.4
714.715	668.4
715.123	660.4
715.53	673
715.938	679.6
716.367	667.2
716.775	663.4
717.184	656.6
717.592	655.2
718	680.6
718.408	696
718.816	710.2
719.225	659.8
719.633	669.4
720.042	656.2
720.472	660.4
720.881	687.6
721.29	673.2
721.699	650.6
722.108	665
722.517	668
722.926	664.8
723.335	678.4
723.744	663
724.154	665.8
724.563	659.8
724.973	670.6
725.382	661.8
725.792	666.2
726.202	655.8
726.612	682.4
727.022	654.6
727.432	658.4
779.813	657.2
780.223	713.4
780.634	658.8
781.044	647.4
781.454	653
781.865	679.6
782.276	645
782.686	668.4
783.097	659.2
783.508	654.2
783.919	668.6
784.33	679
784.741	678.2
785.152	656.6
785.563	644
785.974	660
786.386	674.4
786.776	663.8
787.188	664
787.599	648.6
788.011	670.4
788.423	652.6
788.835	660.2
789.247	651.4
789.659	654.2
790.071	662.2
790.483	711.8
790.874	669.4
791.286	665.2
791.699	648.8
792.111	664.2
792.524	664.2
792.937	659.4
793.349	650.6
793.741	657.6
794.154	655.6
794.567	690.6
794.98	657.8
795.393	650.2
795.785	673.4
796.198	650.6
796.612	658.4
797.026	660.8
797.439	646
797.831	657.2
798.245	651.4
798.659	655.8
799.073	659
799.487	657.6
799.88	661.4
800.294	660
800.708	661.6
801.123	658.2
801.516	689.6
801.93	639.6
802.345	648.8
802.76	663
803.153	681.2
803.568	673.6
803.983	671.8
804.377	662
804.792	642.8
805.207	654.4
805.601	657.8
806.016	697.6
806.432	653.6
806.826	697.8
807.242	673.4
807.658	662
808.052	658
808.468	662
808.884	651.4
809.279	660.4
809.695	672.8
810.111	694.6
810.506	667.2
810.922	680.6
811.339	655.2
811.734	677.2
812.151	662.8
812.546	665.8
812.963	651.8
813.38	674.2
813.776	657.2
814.193	685.2
814.589	662.4
815.006	657.2
815.402	650.8
815.82	655.6
816.237	661.6
816.633	665.6
817.051	643.8
817.448	666
817.866	656.2
818.262	684.8
818.68	650.8
819.077	662.8
819.495	660.8
819.892	703.4
820.311	648
820.708	648.6
821.127	650.6
821.524	672
821.943	660.6
822.34	676.4
822.759	663
823.157	657.8
823.576	675.2
823.974	672.4
824.393	736
824.791	648.4
825.189	654.4
825.609	652.4
826.007	671.2
826.427	647.6
826.826	658.8
827.246	662.6
827.644	641.4
828.043	665.4
828.463	657.6
828.862	665.8
829.261	673.4
829.682	648.2
830.081	671.2
830.502	655
830.901	667
831.301	658
831.722	655.4
832.121	657.6
832.521	657.4
832.943	660
833.342	651.8
833.742	654.4
834.164	662.4
834.564	657.8
834.965	661.4
835.386	659.8
835.787	649.6
836.188	654.2
836.588	657.4
837.01	663.2
837.411	644.2
837.812	664.6
838.213	663.4
838.636	651.6
839.037	728.4
839.438	656.2
839.84	663.6
840.263	659.8
840.664	657.4
841.066	652.6
841.468	657.6
841.891	656.8
842.293	673.8
842.695	664
843.098	668.2
843.5	656.4
843.902	663.2
844.326	666.2
844.729	651.6
845.131	667.6
845.534	666
845.937	674.4
846.34	679.8
846.764	654
847.167	662
847.571	653.2
847.974	658.2
848.377	658.2
848.781	718.8
849.184	669.2
849.588	662.8
849.992	660.2
850.396	663.8
850.821	684
851.225	666
851.63	656.4
852.034	674.8
852.438	659.6
852.843	794.2
853.247	649.4
853.652	659.4
854.057	681.6
854.462	659
854.867	665.2
