#lambda/nm	C1
208.295	548.4
208.67	495.6
209.045	456.6
209.419	458.6
209.794	694.8
210.169	672.8
210.544	810.6
210.919	700
211.295	683.6
211.67	692.4
212.045	687
212.421	689.6
212.796	734.2
213.172	693.8
213.547	684.2
213.923	689.4
214.299	683.4
214.675	692.4
215.051	691.4
215.427	697.6
215.803	716.4
216.179	699.4
216.555	680.2
216.932	706.2
217.308	685.4
217.684	691.6
218.061	698
218.438	694.6
218.814	678.8
219.191	696.6
219.568	683.8
219.945	679.2
220.322	697.8
220.699	699.2
221.076	696.8
221.453	689.6
221.83	679
222.208	676.8
222.585	682.6
222.962	689.8
223.34	688.4
223.717	689.4
224.095	687.6
224.473	690.6
224.851	682.4
225.229	665.8
225.607	714
225.985	669.4
226.363	694.6
226.741	687.6
227.119	686.8
227.497	705.4
227.876	676.8
228.254	705.8
228.633	690.8
229.011	700.2
229.39	696.2
229.769	691.6
230.148	698.8
230.527	715
230.905	694.4
231.284	696.6
231.664	681.4
232.043	705
232.422	693
232.801	677.8
233.181	698.6
233.56	678
233.94	689.8
234.319	674.2
234.699	678.8
235.079	736
235.458	734.2
235.838	707.4
236.218	681.2
236.598	677.8
236.978	684.8
237.358	670
237.738	674.8
238.119	695.2
238.499	674.6
238.88	697.6
239.26	709.2
239.641	676.6
240.021	693.4
240.402	695.2
240.783	681.4
241.163	690.4
241.544	689.6
241.925	691.4
242.306	703
242.687	679.4
243.069	695
243.45	699.6
243.831	690.4
244.212	689.8
244.594	733
244.975	700
245.357	693.4
245.739	687.6
246.12	695
246.502	693.4
246.884	684.4
247.266	691.4
247.648	692.8
248.03	704.4
248.412	691.6
248.794	701.6
249.176	692.4
249.559	703.4
249.941	687.6
250.323	681.4
250.706	672.8
251.089	691.8
251.471	687.8
251.854	691.8
252.237	695
252.62	697
253.002	695.6
253.385	685.6
253.769	706.6
254.152	693.6
254.535	700
254.918	685.6
255.301	692.6
255.685	686
256.068	681.6
256.452	721.8
256.835	702.2
257.219	692.2
257.603	705.6
257.986	691.6
258.37	697.4
258.754	678.2
259.138	698.8
259.522	698.2
259.906	695
260.29	696
260.675	689
261.059	687.2
261.443	681.4
261.828	692.4
262.212	689.6
262.597	681.8
262.981	686.4
263.366	707.2
263.751	687.2
264.136	684.2
264.521	690.6
264.906	685.2
265.291	701.4
265.676	680.2
266.061	707.8
266.446	718.6
266.831	688.8
267.217	709.8
267.602	700.8
267.987	688.8
268.373	691.4
268.759	700.8
269.144	699.8
269.53	686.6
269.916	682.6
270.302	689.8
270.688	686.8
271.074	688.6
271.46	705
271.846	724.4
272.232	688
272.618	679.4
273.004	683.6
273.391	692.2
273.777	703.2
274.164	700.6
274.55	711
274.937	689.4
275.324	696.2
275.71	701.2
276.097	698.2
276.484	679.6
276.871	688
277.258	692
277.645	684.6
278.032	690
278.419	674.8
278.807	695.2
279.194	686
279.581	682.8
279.969	698.4
280.356	686.6
280.744	690.8
281.131	718.2
281.519	701
281.907	697.4
282.295	688.4
282.682	707.4
283.07	691.4
283.458	704
283.846	710
284.235	708.8
284.623	708.8
285.011	684.8
285.399	691.4
285.788	700
286.176	686.8
286.565	709
286.953	689.8
287.342	688.2
287.731	684.8
288.119	684
288.508	691
288.897	699.6
289.286	680.8
289.675	695.4
290.064	704.6
290.453	689.4
290.821	687.8
291.21	705.6
291.599	696.2
291.989	692.6
292.378	710.4
292.768	716.6
293.157	699.2
293.547	705.8
293.936	689.2
294.326	690.4
294.716	698.8
295.106	688.6
295.496	696.2
295.886	715.8
296.276	688.6
296.666	691
297.056	689.6
297.446	686.8
297.836	704.2
298.227	691.4
298.617	692.8
299.008	710.8
299.398	676.2
299.789	685.6
300.179	696.6
300.57	710.4
300.961	690.2
301.352	684.2
301.742	707
302.133	697.6
302.524	696.4
302.915	689.6
303.307	686
303.698	708.8
304.089	696.8
304.48	701.4
304.872	689.8
305.263	691.4
305.655	696.2
306.046	704.4
306.438	703.2
306.829	703.6
307.221	711.8
307.613	696.6
308.005	711.8
308.397	704.6
308.789	716
309.181	725.4
309.573	708
309.965	712.8
310.357	686.8
310.749	714.2
311.142	685
311.534	689.8
311.926	701
312.319	694.2
312.711	686.8
313.104	706.2
313.497	700.4
313.889	751
314.282	715.2
314.675	721.4
315.068	696.6
315.461	704
315.854	730.6
316.247	708
316.64	697
317.033	701
317.405	704.2
317.798	701.2
318.192	699.6
318.585	686.2
318.979	710
319.372	692.2
319.766	690.4
320.16	704.2
320.553	709.8
320.947	715.6
321.341	695
321.735	697.4
322.129	679.4
322.523	721.4
322.917	682.2
323.311	715.8
323.705	698.4
324.099	693
324.494	713
324.888	698
325.282	689.8
325.677	701.4
326.071	697.6
326.466	706.4
326.861	702.8
327.255	715.4
327.65	710.2
328.045	717.6
328.44	701.4
328.835	695.2
329.23	685.4
329.625	723.4
330.02	697.8
330.415	721.8
330.81	698.2
331.206	691
331.601	689.4
331.996	696.2
332.37	726.8
332.766	682.4
333.161	727.2
333.557	688.8
333.953	695.6
334.348	1038.4
334.744	694.2
335.14	698
335.536	694.8
335.932	719.6
336.328	693
336.724	700.4
337.12	695.6
337.516	700
337.913	695.8
338.309	708
338.705	701.2
339.102	709.6
339.498	682.4
339.895	709
340.291	685.2
340.688	698.8
341.085	679.4
341.481	691.4
341.878	695.2
342.275	721.6
342.672	680.4
343.069	688
343.466	681.2
343.842	700
344.239	684.4
344.636	691
345.033	684.6
345.431	688.6
345.828	691.4
346.225	684.8
346.623	733.8
347.02	693.2
347.418	693.8
347.816	703
348.213	683.8
348.611	700.6
349.009	685.6
349.407	707.6
349.805	673.2
350.203	686.8
350.601	708.2
350.999	686.4
351.397	749.2
351.795	698.8
352.193	703.4
352.57	695.2
352.969	715
353.367	674.8
353.766	686.2
354.164	693.8
354.563	696.6
354.961	695.6
355.36	685.4
355.759	689.8
356.158	680.6
356.557	688.8
356.956	683.4
357.355	684.2
357.754	693.8
358.153	706.8
358.552	719.8
358.951	689.4
359.35	704.2
359.75	687.4
360.149	679.4
360.527	675.4
360.926	675.8
361.326	684.4
361.726	684
362.125	678.4
362.525	695.4
362.925	679.4
363.325	694
363.724	683
364.124	678.4
364.524	675.6
364.924	675.8
365.324	703
365.725	676.6
366.125	697.4
366.525	686.2
366.904	685.2
367.304	670
367.705	706.8
368.105	702
368.506	687.6
368.906	685.4
369.307	692.8
369.708	690.4
370.108	674.2
370.509	698
370.91	682.8
371.311	693.4
371.712	695.8
372.113	685.6
372.514	677.8
372.894	686.6
373.295	686.6
373.696	701.8
374.097	703.6
374.499	712.4
374.9	690.6
375.301	674.6
375.703	693.4
376.105	683.8
376.506	690
376.908	686.2
377.309	685.4
377.711	685.2
378.113	686.2
378.493	685.8
378.895	677.6
379.297	691.6
379.699	667
380.102	686.8
380.504	684
380.906	682.4
381.308	709.8
381.71	677.6
382.113	699.6
382.515	680.2
382.918	683.4
383.299	685.4
383.701	700.8
384.104	695.2
384.507	661.8
384.909	685.4
385.312	672
385.715	673.6
386.118	676.6
386.521	668.2
386.924	702
387.327	686.4
387.709	675
388.112	671.6
388.515	688.8
388.918	690.4
389.322	693.4
389.725	674.8
390.129	707.2
390.532	699.2
390.936	680.6
391.339	684.6
391.743	683.2
392.125	682
392.529	701
392.933	694.4
393.337	679
393.74	687.4
394.144	680.4
394.548	678.2
394.953	691.8
395.357	692.4
395.761	680.2
396.144	689.2
396.548	685.8
396.952	684
397.357	690.4
397.761	683.6
398.166	686.4
398.57	686.4
398.975	681.8
399.379	682.6
399.763	742
400.168	690.2
400.572	689.4
400.977	679.6
401.382	703.8
401.787	700.4
402.192	699.2
402.597	713.2
403.002	677.8
403.386	703.6
403.791	708.4
404.197	674.6
404.602	695.2
405.007	677
405.413	670
405.818	677.4
406.224	671.4
406.608	683.4
407.014	677.6
407.42	706.8
407.825	688
408.231	694.8
408.637	690.8
409.043	706.6
409.449	682
409.834	674.4
410.24	691.4
410.646	700.4
411.052	692.6
411.458	690.6
411.865	703.8
412.271	697.4
412.677	691.4
413.062	700.6
413.469	675.4
413.875	717.6
414.282	702.4
414.689	692.8
415.095	693.6
415.502	686.2
415.888	694
416.294	675.2
416.701	739
417.108	684.4
417.515	701.2
417.923	689.4
418.33	707.8
418.715	692.6
419.123	684.2
419.53	678.2
419.937	694.4
420.345	704.2
420.752	690.8
421.16	707.8
421.546	695.8
421.953	698.8
422.361	686.8
422.769	692.4
423.177	682.2
423.585	718.4
423.992	717.4
424.379	708.8
424.787	710.2
425.195	715.8
425.603	683.6
426.011	703.6
426.419	699
426.806	690.6
427.214	691
427.623	701.4
428.031	708.2
428.44	693.8
428.848	710.4
429.235	704.8
429.644	689.8
430.053	696.6
430.461	711.2
430.87	715
431.279	702.2
431.666	686.8
432.075	696
432.484	701.2
432.893	689.2
433.302	716
433.711	742.6
434.099	694
434.508	683.8
434.918	673.4
435.327	702.6
435.737	696
436.125	693.4
436.534	691.2
436.944	694.2
437.353	692.4
437.763	708.2
438.173	673.2
438.561	701
438.971	667.8
439.381	680
439.791	695
440.201	668.2
440.589	694.8
440.999	691.4
441.409	694.8
441.819	680.4
442.23	697
442.619	697.2
443.029	691.6
443.439	691.8
443.85	697.6
444.26	707.8
444.649	689.8
445.06	688.4
445.471	676
445.881	684.2
446.292	704.2
446.682	709.6
447.092	668.2
447.503	747.6
447.914	688.4
448.325	681.6
448.715	687.4
449.126	690
449.537	682.4
449.948	689
450.338	694.2
450.75	691
451.161	694.6
451.572	707
451.984	686
452.374	672
452.786	689.4
453.197	694.6
453.609	701.6
453.999	665.2
454.411	684
454.823	699.4
455.235	690
455.647	681.4
456.037	681.4
456.449	664
456.862	682.4
457.274	693.4
457.665	674
458.077	696
458.489	726
458.902	678.2
459.293	685.6
459.705	689
460.118	678.8
460.53	683.2
460.921	692
461.334	685.4
461.747	690.2
462.16	695
462.551	691.8
462.964	684.8
463.377	680.8
463.79	680.4
464.182	696.2
464.595	678
465.008	694.6
465.421	690.4
465.813	692.6
466.226	695.6
466.64	680.4
467.053	733.6
467.445	706.2
467.859	708
468.272	694.2
468.686	703
469.078	684.6
469.492	664.4
469.906	694.2
470.298	696.4
470.712	685
471.126	747.2
471.54	668.4
471.933	677.8
472.347	686.8
472.761	677.8
473.175	672.8
473.568	680
473.982	682.8
474.397	675.2
474.79	684.6
475.204	700
475.619	695.6
476.033	684.4
476.426	688
476.841	686.8
477.256	712.8
477.649	680.8
478.064	681.4
478.479	677.8
478.872	675.2
479.287	664.4
479.702	680.8
480.118	683.4
480.511	675.2
480.927	680.6
481.342	666.8
481.736	680.2
482.151	673
482.566	700.6
482.96	676.2
483.376	689.8
483.792	672.2
484.186	691.8
484.602	682.4
485.017	682.4
485.412	677.2
485.827	683.4
486.243	677.6
486.638	703.6
487.054	688.4
487.47	704.2
487.865	683.2
488.281	687
488.697	680
489.092	691
489.508	675.4
489.925	691.4
490.32	669.8
490.736	674.2
491.153	693.8
491.548	683
491.964	698
492.381	672.6
492.776	682.8
493.193	688.8
493.61	690.8
494.006	677.8
494.422	699.4
494.84	677.6
495.235	700
495.652	674
496.069	681
496.465	673.6
496.883	692.4
497.3	715
497.696	677.2
498.113	687.8
498.509	667.2
498.927	670
499.344	670.4
499.741	671.4
500.158	684.6
500.576	693
500.973	678.2
501.39	675.8
501.787	673
502.205	694.4
502.623	677
503.02	665.6
503.438	674.2
503.856	679.2
504.253	688.6
504.671	683.6
505.068	676
505.486	677.2
505.905	709.6
506.302	674.8
506.72	693.6
507.118	660
507.536	683.6
507.955	676.2
508.352	680.4
508.771	690.8
509.169	691.4
509.587	669.6
510.006	677.4
510.404	671
510.823	672.2
511.221	671.8
511.64	684.6
512.038	690
512.457	677.8
512.877	677.6
513.275	673.6
513.694	677.2
514.092	678.2
514.512	684
514.91	678
515.33	685
515.749	682.2
516.148	690
516.568	680.2
516.966	672.2
517.386	675.4
517.785	673.4
518.205	674.6
518.603	665.2
519.024	667.6
519.444	681.4
519.843	687.4
520.263	687.2
520.662	681.6
521.082	672.6
521.481	680
521.902	667.8
522.301	674.2
522.722	679
523.121	678
523.542	674.4
523.963	679.6
524.362	678.4
524.783	674.4
525.183	681.4
525.604	681.4
526.003	668
526.425	663.4
526.824	682
527.246	682.6
527.646	688.4
528.067	676.6
528.467	683.2
528.888	683.6
529.289	676.2
529.71	682.4
530.11	665.8
530.532	671.2
530.932	668.2
531.354	665
531.755	714.8
532.176	683.8
532.577	685.4
532.999	674.4
533.4	673.2
533.822	684
534.223	679.2
534.645	678.6
535.046	663
535.468	675
535.869	688.6
536.292	658
536.693	722.4
537.115	674
537.516	677
537.939	668.6
538.34	691.4
538.742	681.2
539.165	682.4
539.566	677.2
539.989	656
540.391	668.4
540.814	682.6
541.216	672.6
541.639	672.4
542.041	685.8
542.464	671
542.866	666.2
543.268	661.4
543.691	683
544.093	690
544.517	692.8
544.919	676
545.343	706.4
545.745	661.8
546.147	680.8
546.571	676.2
546.974	665.8
547.398	670.8
547.8	682.2
548.224	666
548.627	663.8
549.03	682.4
549.454	665.2
549.857	662.2
550.281	660.2
550.684	666.6
551.087	678
551.512	676.2
551.915	679.4
552.34	668
552.743	666.8
553.146	672
553.571	678.4
553.975	692.6
554.399	671.6
554.803	724.4
555.207	669.6
555.632	658.6
556.036	676
556.461	670.8
556.865	679.4
557.268	659.8
557.694	676
558.098	673.4
558.502	678
558.927	667.4
559.332	673
559.736	673.6
560.162	678.4
560.566	667
560.992	678.2
561.396	673.4
561.801	682.2
562.227	675.4
562.631	674
563.036	670.6
563.462	687.4
563.867	668
564.272	665.2
564.698	678
565.103	661.2
565.508	696.6
565.935	672.4
566.34	666.6
566.745	686.6
567.172	667
567.577	694.4
567.982	683.2
568.409	666.6
568.815	661.4
569.22	665.8
569.626	678.6
570.053	648.8
570.459	673.6
570.865	685.2
571.292	678.2
571.698	670.4
572.104	658.8
572.531	665.6
572.937	675
573.343	672.6
573.75	670.4
574.177	672
574.583	674.8
574.99	675.8
575.396	680.4
575.824	666.6
576.231	669
576.637	666
577.065	697.2
577.472	657.2
577.879	675.2
578.286	693.8
578.714	657.8
579.121	680.2
579.528	677
579.935	681.6
580.364	674.2
580.771	656
581.178	662.2
581.585	667.2
582.014	678.8
582.421	669.4
582.829	665
583.236	681.8
583.644	667.8
584.073	664.2
584.481	670.8
584.889	657.4
585.296	678
585.726	667
586.134	661
586.542	665.4
586.95	686.6
587.358	660.4
587.787	667
588.196	648.8
588.604	662.2
589.012	671.4
589.421	656.4
589.851	657.2
590.259	665
590.668	670.8
591.076	713
591.485	663
591.894	675.8
592.324	678.6
592.733	677.8
593.142	659.2
593.551	662.2
593.96	672.4
594.369	658.8
594.8	665
595.209	666.6
595.618	655
596.028	667.6
596.437	655.6
596.847	670
597.256	664
597.687	666
598.097	672.2
598.507	654.6
598.917	679.6
599.327	672.4
599.736	677.6
600.146	676
600.556	674.8
600.988	686.2
601.398	660
601.808	677.4
602.219	658
602.629	668
603.039	676.2
603.45	701
603.86	673.6
604.271	687
604.703	672.8
605.114	668.2
605.525	661.6
605.935	679
606.346	701.8
606.757	675.2
607.168	670.2
607.579	671.4
607.99	673.2
608.402	668
608.813	675.4
609.224	668.2
609.636	657.2
610.047	666.8
610.48	673.4
610.892	673
611.303	674
611.715	670.4
612.127	652.2
612.539	663.8
612.95	672.6
613.362	649.4
613.774	655.2
614.186	659
614.599	664.2
615.011	678.6
615.423	681
615.835	664
616.248	658.4
616.66	680.8
617.073	653.8
617.485	667
617.898	675.4
618.311	674.6
618.723	667.6
619.136	701.2
619.549	686
619.962	701
620.375	670.6
620.788	667.8
621.201	660
621.614	673.6
622.028	671.6
622.441	669.6
622.854	688.8
623.268	660.6
623.681	669.4
624.095	670.4
624.509	678.2
624.922	675.2
625.336	661
625.728	670.2
626.142	678
626.556	690.2
626.97	672.2
627.384	669.6
627.799	670.6
628.213	679.8
628.627	676.4
629.041	657.2
629.456	654
629.87	673.6
630.285	674.8
630.699	680.8
631.093	668.4
631.507	678.8
631.922	674.2
632.337	682.4
632.752	661
633.167	672.6
633.582	670
633.997	666
634.412	661.6
634.806	666.8
635.221	659
635.637	687
636.052	655.8
636.468	671.6
636.883	684.2
637.299	667.4
637.715	652.6
638.109	665
638.525	658
638.941	678.2
639.357	661.2
639.773	672
640.189	661.2
640.584	673.2
641	663.6
641.416	655.2
641.832	664.4
642.249	653.6
642.665	658.6
643.06	673.4
643.477	677.6
643.894	656.4
644.31	657.4
644.727	659.8
645.123	664.8
645.54	657.6
645.957	661.6
646.374	682.2
646.77	667.4
647.187	700.6
647.604	680
648.021	650.2
648.439	660.6
648.835	679
649.252	670.2
649.67	666.6
650.088	670.4
650.484	668.2
650.902	664.2
651.32	665.8
651.738	660.6
652.134	666.8
652.552	694.2
652.971	671.6
653.389	661.8
653.786	679.6
654.204	690.8
654.622	658.8
655.019	658.4
655.438	665.4
655.857	662.8
656.275	670.4
656.673	659.6
657.091	750.4
657.51	669.8
657.908	676.2
658.327	683.4
658.746	654.2
659.144	665.4
659.563	690
659.982	672.2
660.38	652.6
660.8	666.2
661.219	679.2
661.617	670.8
662.037	667
662.457	688.4
662.855	651
663.275	705.6
663.695	674.6
664.094	673.4
664.514	661.8
664.934	658.2
665.333	670.8
665.753	664
666.152	650.4
666.572	662.6
666.993	679.2
667.392	657.4
667.812	658.8
668.212	652
668.632	679.8
669.053	660.4
669.453	669
669.874	676.4
670.273	668.6
670.694	653.2
671.116	675.8
671.515	673.4
671.937	663.6
672.337	672.2
672.758	664.2
673.158	672.2
673.58	659.8
673.98	670
674.402	672.8
674.824	666.2
675.224	661.8
675.646	659.2
676.047	660.6
676.469	663.2
676.869	674
677.292	673.8
677.693	665
678.115	651.6
678.516	669.8
678.939	669.8
679.34	666.2
679.762	678
680.164	677.6
680.586	649.2
680.988	668.2
681.411	697.2
681.812	663.2
682.236	667.6
682.637	654.4
683.061	658.4
683.462	668.4
683.864	660
684.288	673.6
684.69	650.4
685.114	678.6
685.516	681.4
685.94	660.2
686.342	674.6
686.766	663
687.168	656.2
687.571	683.4
687.995	657
688.398	653.6
688.822	661.4
689.225	687
689.628	683.8
690.052	662.6
690.456	666.4
690.88	667.4
691.284	648.2
691.687	672.6
692.112	655.8
692.515	654.4
692.919	666.2
693.344	662.4
693.747	657.6
694.173	663
694.577	670.6
694.98	658.4
695.406	654.6
695.81	664.6
696.214	667.2
696.64	673
697.044	668
697.448	673
697.874	660.2
698.279	662.4
698.684	657
699.11	650.4
699.514	663.4
699.919	659
700.324	646.4
700.75	659.4
701.156	663.6
701.561	675.8
701.987	675.8
702.393	680.2
702.798	684.8
703.203	660.2
703.63	657.8
704.036	661.4
704.442	665.6
704.847	665
705.274	664.4
705.68	670
706.086	674.2
706.492	655
706.92	662
707.326	676.6
707.732	662.2
708.139	662.4
708.545	659.6
708.973	658
709.38	665.6
709.786	657
710.193	680.6
710.6	663.6
711.028	658.6
711.435	666
711.842	668.6
712.249	661
712.656	665.6
713.064	665.8
713.492	663.4
713.9	657.8
714.307	675.8
714.715	662.2
715.123	668.6
715.53	661.6
715.938	681
716.367	668.8
716.775	661.4
717.184	651.8
717.592	656.8
718	676.8
718.408	709
718.816	718.4
719.225	669.2
719.633	668.2
720.042	658.4
720.472	660.2
720.881	691.8
721.29	671
721.699	652.4
722.108	666.8
722.517	669
722.926	656.6
723.335	672
723.744	653.4
724.154	665.8
724.563	663.4
724.973	675.4
725.382	662.6
725.792	663
726.202	656.8
726.612	688.2
727.022	666.8
727.432	662
779.813	662.2
780.223	709.2
780.634	663
781.044	651.4
781.454	652.4
781.865	677.4
782.276	660.6
782.686	682.2
783.097	670.8
783.508	660.4
783.919	670.6
784.33	672.2
784.741	678
785.152	650.8
785.563	643.8
785.974	654.6
786.386	672.8
786.776	656.6
787.188	663.8
787.599	656.8
788.011	672
788.423	670.2
788.835	657.6
789.247	657.4
789.659	656.6
790.071	658
790.483	710.2
790.874	659.4
791.286	669.8
791.699	656.4
792.111	669
792.524	664
792.937	661.4
793.349	648.2
793.741	655.2
794.154	650.4
794.567	679
794.98	661
795.393	643.2
795.785	676.8
796.198	661
796.612	669.4
797.026	664.2
797.439	649.2
797.831	653
798.245	642.2
798.659	666.6
799.073	654.4
799.487	657.2
799.88	665.8
800.294	652.6
800.708	666.8
801.123	668.2
801.516	681.2
801.93	652.4
802.345	645.2
802.76	655.4
803.153	676
803.568	678
803.983	668.2
804.377	653.4
804.792	648.8
805.207	644.2
805.601	658
806.016	698.8
806.432	654.4
806.826	695.4
807.242	676.4
807.658	661.2
808.052	657.8
808.468	664
808.884	654.4
809.279	656.6
809.695	671.8
810.111	682.2
810.506	663.2
810.922	676.6
811.339	658.6
811.734	675.2
812.151	655.2
812.546	655.4
812.963	658.2
813.38	658.6
813.776	650.6
814.193	682.6
814.589	653
815.006	657.6
815.402	654
815.82	658.8
816.237	660
816.633	655.6
817.051	653.8
817.448	666.6
817.866	648.8
818.262	680.2
818.68	657.4
819.077	653
819.495	663
819.892	708.8
820.311	653.4
820.708	657.4
821.127	657.4
821.524	669.2
821.943	666.2
822.34	680.8
822.759	663.6
823.157	657.8
823.576	684.6
823.974	666
824.393	790.4
824.791	651
825.189	645.2
825.609	657
826.007	656.6
826.427	647.4
826.826	666.4
827.246	666.6
827.644	639
828.043	667.4
828.463	655.8
828.862	669.6
829.261	666.6
829.682	644.6
830.081	673.2
830.502	650
830.901	658.2
831.301	652.2
831.722	642.6
832.121	661.8
832.521	655.2
832.943	660.6
833.342	662.8
833.742	654.8
834.164	655.6
834.564	647.2
834.965	654.6
835.386	658.8
835.787	653
836.188	658.4
836.588	659.2
837.01	662.6
837.411	653.4
837.812	664.4
838.213	668.4
838.636	657.4
839.037	742.8
839.438	661.4
839.84	666
840.263	666.2
840.664	665.4
841.066	664.2
841.468	659.2
841.891	651.8
842.293	674.2
842.695	666.6
843.098	674.8
843.5	657.8
843.902	659.8
844.326	665
844.729	664.2
845.131	670.4
845.534	654.2
845.937	667.4
846.34	671.8
846.764	649.4
847.167	666
847.571	646.4
847.974	665.6
848.377	658.8
848.781	715
849.184	672.4
849.588	654.6
849.992	658.6
850.396	665.2
850.821	679.2
851.225	655.2
851.63	660
852.034	674.4
852.438	657.4
852.843	798
853.247	654
853.652	652
854.057	684
854.462	667.4
854.867	660.2
855.272	693.4
855.677	671.2
856.082	658.4
856.487	640.4
