#lambda/nm	C1
208.295	541.6
208.67	486.6
209.045	460.4
209.419	460
209.794	678.8
210.169	669.8
210.544	816.4
210.919	693.4
211.295	679.2
211.67	695.2
212.045	688.4
212.421	683.6
212.796	731.8
213.172	688.2
213.547	689.8
213.923	688.6
214.299	689.8
214.675	693.8
215.051	689.8
215.427	692.2
215.803	709.6
216.179	689.8
216.555	682.2
216.932	700.4
217.308	690.4
217.684	698.4
218.061	689.6
218.438	687.4
218.814	674
219.191	699.2
219.568	681.6
219.945	685.8
220.322	692.2
220.699	697.8
221.076	700
221.453	697.8
221.83	684.2
222.208	694.4
222.585	688.4
222.962	697.4
223.34	698.6
223.717	691
224.095	698.8
224.473	695.6
224.851	683.4
225.229	683.4
225.607	708.2
225.985	679.6
226.363	695.2
226.741	692.4
227.119	690.8
227.497	707.2
227.876	668.4
228.254	683.4
228.633	692.8
229.011	685.8
229.39	694.4
229.769	690.6
230.148	693.4
230.527	707.8
230.905	689.6
231.284	692
231.664	686
232.043	714.2
232.422	694.6
232.801	682.2
233.181	693
233.56	692.2
233.94	691.8
234.319	676.4
234.699	685.6
235.079	740.8
235.458	733
235.838	714.4
236.218	677.8
236.598	674.6
236.978	674.2
237.358	682.6
237.738	686.4
238.119	690.6
238.499	667.2
238.88	680.6
239.26	707.4
239.641	674.4
240.021	689.4
240.402	679.2
240.783	689.6
241.163	693.6
241.544	692.6
241.925	688
242.306	704.4
242.687	679.8
243.069	692.4
243.45	698.2
243.831	686.8
244.212	691.6
244.594	737
244.975	696.4
245.357	688.2
245.739	683
246.12	696.8
246.502	706
246.884	686.4
247.266	682.8
247.648	696.8
248.03	721.8
248.412	696.4
248.794	698.4
249.176	680.8
249.559	697.8
249.941	687
250.323	679.8
250.706	680
251.089	694.2
251.471	695.2
251.854	692
252.237	698.6
252.62	705.2
253.002	692.2
253.385	690.6
253.769	706.8
254.152	688.4
254.535	695
254.918	688.4
255.301	685.8
255.685	691.8
256.068	677
256.452	723.2
256.835	697.6
257.219	699.6
257.603	710.2
257.986	683
258.37	703
258.754	681.4
259.138	705
259.522	705.6
259.906	687.8
260.29	698.2
260.675	686.8
261.059	685.8
261.443	682.2
261.828	702.8
262.212	700.2
262.597	680.6
262.981	688.4
263.366	699.4
263.751	690.6
264.136	695
264.521	693.6
264.906	679.6
265.291	702.6
265.676	691
266.061	699
266.446	703.8
266.831	690.8
267.217	711.6
267.602	688
267.987	689
268.373	679
268.759	697.8
269.144	694.6
269.53	691
269.916	683.2
270.302	678.6
270.688	692.4
271.074	690.4
271.46	704.6
271.846	723
272.232	697.4
272.618	685.2
273.004	696.8
273.391	703.2
273.777	708.8
274.164	691.8
274.55	713.6
274.937	696.8
275.324	693.6
275.71	707.4
276.097	696.4
276.484	687
276.871	692.6
277.258	691.4
277.645	686.4
278.032	690.8
278.419	687.2
278.807	697.2
279.194	688.2
279.581	681.8
279.969	695.6
280.356	696.8
280.744	695
281.131	726
281.519	700.2
281.907	690.8
282.295	685.4
282.682	704
283.07	695.6
283.458	707.2
283.846	707.2
284.235	705.2
284.623	691
285.011	686.4
285.399	690.8
285.788	685.4
286.176	689
286.565	708
286.953	692
287.342	684.8
287.731	690.8
288.119	689.2
288.508	690.4
288.897	690
289.286	682.6
289.675	683.4
290.064	703.8
290.453	681.8
290.821	694.2
291.21	715.6
291.599	690.6
291.989	690.8
292.378	708
292.768	718.8
293.157	701
293.547	693.2
293.936	693.8
294.326	686.2
294.716	689.2
295.106	685.2
295.496	693.8
295.886	697.6
296.276	695.8
296.666	691
297.056	682
297.446	681.6
297.836	711.4
298.227	685.8
298.617	689.4
299.008	702.8
299.398	692.8
299.789	686.2
300.179	690.8
300.57	704.2
300.961	679
301.352	687.2
301.742	697.6
302.133	683.6
302.524	688.2
302.915	696.4
303.307	684.6
303.698	704.6
304.089	706.6
304.48	702
304.872	706
305.263	704
305.655	682
306.046	705.4
306.438	700.2
306.829	682.4
307.221	713.6
307.613	702
308.005	709.2
308.397	712.2
308.789	717.4
309.181	731.6
309.573	716
309.965	712.8
310.357	695.4
310.749	723.2
311.142	690
311.534	688.2
311.926	697.4
312.319	691.4
312.711	676
313.104	717.2
313.497	690.6
313.889	735.2
314.282	712.2
314.675	713.2
315.068	698.4
315.461	700.6
315.854	720.6
316.247	697.2
316.64	695.2
317.033	692.6
317.405	714.6
317.798	691.6
318.192	696.6
318.585	684.4
318.979	701.8
319.372	688
319.766	689.6
320.16	706
320.553	712.2
320.947	725.4
321.341	693
321.735	689.2
322.129	675
322.523	722.2
322.917	684.6
323.311	706.4
323.705	696.4
324.099	697.8
324.494	707.6
324.888	711
325.282	692
325.677	715
326.071	699.2
326.466	705.6
326.861	698.2
327.255	717.2
327.65	718.6
328.045	711.2
328.44	700.6
328.835	701.6
329.23	683.8
329.625	724.8
330.02	689
330.415	720.6
330.81	697.6
331.206	698.6
331.601	682.4
331.996	701.2
332.37	718
332.766	691.4
333.161	721.8
333.557	690
333.953	696.8
334.348	1201
334.744	692.2
335.14	683.2
335.536	686.4
335.932	715.6
336.328	690.4
336.724	702.6
337.12	693.2
337.516	695.4
337.913	693.2
338.309	713.8
338.705	690.2
339.102	711
339.498	691.2
339.895	709.2
340.291	693.6
340.688	707.2
341.085	684.8
341.481	697.2
341.878	695.6
342.275	724.6
342.672	689.4
343.069	690.4
343.466	685.2
343.842	703.6
344.239	683.4
344.636	693.8
345.033	677.2
345.431	684.8
345.828	699.2
346.225	682.8
346.623	726.6
347.02	692
347.418	702.4
347.816	714.2
348.213	681
348.611	699.8
349.009	682.2
349.407	702.6
349.805	680.4
350.203	680.6
350.601	705
350.999	687
351.397	745.4
351.795	694.6
352.193	698.6
352.57	699.6
352.969	698.2
353.367	680.4
353.766	688.2
354.164	693.6
354.563	701.2
354.961	689.8
355.36	691.8
355.759	686.2
356.158	679.8
356.557	673.8
356.956	678.6
357.355	674
357.754	701.4
358.153	697
358.552	723.4
358.951	684.4
359.35	706
359.75	687.2
360.149	673
360.527	676.6
360.926	681.6
361.326	692.8
361.726	686
362.125	678.6
362.525	696
362.925	683.4
363.325	691.4
363.724	698
364.124	686.6
364.524	683.4
364.924	677
365.324	699.8
365.725	670.4
366.125	695.8
366.525	682.8
366.904	684.4
367.304	667
367.705	708.4
368.105	712
368.506	687.4
368.906	693.2
369.307	682.8
369.708	692.6
370.108	676.2
370.509	698.8
370.91	680.4
371.311	686.2
371.712	688
372.113	686.2
372.514	675
372.894	684.2
373.295	680.6
373.696	697
374.097	698.2
374.499	721.6
374.9	686.4
375.301	682.8
375.703	681.6
376.105	668.8
376.506	693.4
376.908	694.6
377.309	689.2
377.711	699
378.113	675.4
378.493	680.6
378.895	681.4
379.297	692.8
379.699	669
380.102	691.4
380.504	686.4
380.906	683.2
381.308	718.4
381.71	684.6
382.113	693.8
382.515	685.2
382.918	692.4
383.299	679.6
383.701	698
384.104	691.8
384.507	663.6
384.909	684.8
385.312	668
385.715	678.6
386.118	688.4
386.521	670.6
386.924	693.6
387.327	675.6
387.709	670.6
388.112	662
388.515	691
388.918	669
389.322	694.2
389.725	675.2
390.129	708.6
390.532	697.8
390.936	681.4
391.339	677.8
391.743	688.6
392.125	683.2
392.529	695
392.933	695
393.337	685.2
393.74	686
394.144	690
394.548	682.2
394.953	680.8
395.357	693.2
395.761	677
396.144	685.4
396.548	681
396.952	684
397.357	684.2
397.761	671.4
398.166	679.8
398.57	681.4
398.975	663.2
399.379	681.2
399.763	738.6
400.168	680
400.572	675.6
400.977	673.6
401.382	706.2
401.787	690.6
402.192	704.6
402.597	695.2
403.002	664
403.386	696.6
403.791	695.8
404.197	679.4
404.602	676.2
405.007	679
405.413	682
405.818	686.8
406.224	687.6
406.608	687.8
407.014	682.4
407.42	704.6
407.825	680.8
408.231	692.6
408.637	691.2
409.043	708.2
409.449	682
409.834	683.2
410.24	685.4
410.646	705.4
411.052	692.8
411.458	688.6
411.865	701
412.271	693.8
412.677	688.6
413.062	694.2
413.469	671.8
413.875	707.2
414.282	706
414.689	685.6
415.095	693.4
415.502	682.6
415.888	687
416.294	679.4
416.701	737.8
417.108	683.8
417.515	693.8
417.923	684.6
418.33	707.4
418.715	690.2
419.123	683.8
419.53	679.4
419.937	680.2
420.345	700.4
420.752	673.8
421.16	703.8
421.546	682
421.953	702.8
422.361	680.4
422.769	687.6
423.177	679.2
423.585	711
423.992	713.8
424.379	699.6
424.787	702.8
425.195	705.8
425.603	683
426.011	699.6
426.419	701.4
426.806	694
427.214	692.6
427.623	695
428.031	702.8
428.44	695.4
428.848	705
429.235	706.2
429.644	697.4
430.053	693.4
430.461	711.4
430.87	723.8
431.279	701.6
431.666	685.8
432.075	692.8
432.484	700.6
432.893	682.6
433.302	721.4
433.711	750.6
434.099	697.8
434.508	690.8
434.918	678.8
435.327	689.2
435.737	694.4
436.125	686.4
436.534	694.6
436.944	685.6
437.353	693.8
437.763	714.2
438.173	679.4
438.561	708.8
438.971	671
439.381	677
439.791	692
440.201	668.4
440.589	688
440.999	690.8
441.409	684.6
441.819	671
442.23	695.2
442.619	695.8
443.029	684.2
443.439	687.2
443.85	699.8
444.26	710.4
444.649	691.6
445.06	688.4
445.471	674.2
445.881	681.6
446.292	709.4
446.682	711.6
447.092	668
447.503	742
447.914	683.4
448.325	688
448.715	687.6
449.126	687.2
449.537	689.6
449.948	691
450.338	685
450.75	689.2
451.161	687.8
451.572	691.8
451.984	683.2
452.374	667.4
452.786	687
453.197	688.6
453.609	692.4
453.999	665.6
454.411	675.2
454.823	704.6
455.235	692.6
455.647	673.2
456.037	691
456.449	678
456.862	685.4
457.274	684.2
457.665	674.2
458.077	688.8
458.489	731.2
458.902	672
459.293	687
459.705	685
460.118	687
460.53	696.6
460.921	683
461.334	690
461.747	673.4
462.16	697.6
462.551	699
462.964	689.6
463.377	667.6
463.79	686.2
464.182	701.6
464.595	674
465.008	687.2
465.421	689.2
465.813	681.4
466.226	693.6
466.64	678.8
467.053	729.8
467.445	704.8
467.859	700.6
468.272	694.2
468.686	698.6
469.078	687.6
469.492	666
469.906	680.4
470.298	695
470.712	682.6
471.126	747.8
471.54	670.8
471.933	676.8
472.347	684.2
472.761	679.6
473.175	674.6
473.568	684.2
473.982	677.2
474.397	688.6
474.79	681.4
475.204	692.6
475.619	687
476.033	691.2
476.426	686.8
476.841	676.4
477.256	709.8
477.649	683.4
478.064	672.8
478.479	668.4
478.872	684.8
479.287	664.4
479.702	672
480.118	671.8
480.511	679.8
480.927	678.6
481.342	678.2
481.736	690.2
482.151	675.2
482.566	697.2
482.96	684.8
483.376	696.6
483.792	678.6
484.186	687.4
484.602	674.6
485.017	689.6
485.412	677.6
485.827	683.2
486.243	681.2
486.638	711.2
487.054	695.8
487.47	704.2
487.865	677.6
488.281	683.2
488.697	680.4
489.092	680.6
489.508	671.6
489.925	695.8
490.32	673
490.736	688
491.153	684.8
491.548	686.2
491.964	695.2
492.381	659.4
492.776	682
493.193	677.4
493.61	691
494.006	683.6
494.422	687.2
494.84	664.6
495.235	689
495.652	680.4
496.069	675.2
496.465	679.6
496.883	675.8
497.3	706.6
497.696	681.4
498.113	691.2
498.509	666.6
498.927	671.6
499.344	673.4
499.741	673.2
500.158	687
500.576	695.2
500.973	676.6
501.39	668.8
501.787	664
502.205	682.4
502.623	667
503.02	663.8
503.438	670
503.856	670.6
504.253	671.4
504.671	677.6
505.068	666.8
505.486	674.8
505.905	689
506.302	677.8
506.72	686.2
507.118	666.4
507.536	682.4
507.955	671.4
508.352	679.8
508.771	685.4
509.169	694
509.587	673.2
510.006	677
510.404	665.4
510.823	668.2
511.221	681
511.64	672
512.038	683
512.457	680
512.877	678.6
513.275	679.4
513.694	682.4
514.092	674.4
514.512	682.8
514.91	679.6
515.33	678.2
515.749	682.2
516.148	692
516.568	685.6
516.966	681.8
517.386	668.4
517.785	676.4
518.205	685
518.603	666.2
519.024	668.6
519.444	682
519.843	683.4
520.263	696.2
520.662	683
521.082	675.4
521.481	672
521.902	670
522.301	679
522.722	682.4
523.121	678.6
523.542	672.6
523.963	664.2
524.362	677
524.783	676
525.183	667.6
525.604	676
526.003	673
526.425	670.6
526.824	673.2
527.246	680
527.646	683.2
528.067	680.2
528.467	687
528.888	677.4
529.289	673
529.71	670.8
530.11	677.6
530.532	674.2
530.932	662.8
531.354	673.6
531.755	711.4
532.176	679.2
532.577	674.6
532.999	673
533.4	674.6
533.822	689
534.223	671.4
534.645	668
535.046	667.2
535.468	676.8
535.869	685
536.292	669.2
536.693	718.8
537.115	683.2
537.516	666.8
537.939	664.2
538.34	697.6
538.742	683.6
539.165	665.8
539.566	678.4
539.989	665.2
540.391	671.2
540.814	673.8
541.216	667.2
541.639	668.8
542.041	685.2
542.464	661.8
542.866	666
543.268	654.4
543.691	677.6
544.093	674
544.517	696.4
544.919	668.4
545.343	702.2
545.745	675
546.147	672.4
546.571	673.8
546.974	662.2
547.398	674
547.8	684.4
548.224	679.6
548.627	668
549.03	675.6
549.454	665.4
549.857	656.2
550.281	661
550.684	664.2
551.087	683.2
551.512	672.2
551.915	675.4
552.34	668.8
552.743	668.6
553.146	663.2
553.571	670.6
553.975	701.2
554.399	654
554.803	728.6
555.207	660.4
555.632	663.2
556.036	682
556.461	658.2
556.865	676.2
557.268	664.2
557.694	662
558.098	683.6
558.502	677
558.927	663.8
559.332	666.2
559.736	675.4
560.162	680
560.566	678
560.992	681.2
561.396	666.4
561.801	672.2
562.227	673.4
562.631	675.2
563.036	668.8
563.462	683.2
563.867	677.8
564.272	655.6
564.698	678.6
565.103	652.2
565.508	693.4
565.935	675.6
566.34	670.8
566.745	682.2
567.172	661
567.577	699.8
567.982	687.2
568.409	674
568.815	663.2
569.22	661
569.626	677.4
570.053	660.6
570.459	680.4
570.865	686.6
571.292	675.4
571.698	673.6
572.104	654.4
572.531	666.2
572.937	680.8
573.343	669.2
573.75	673.4
574.177	683.4
574.583	674.2
574.99	670.4
575.396	679.8
575.824	665.8
576.231	674.2
576.637	670.8
577.065	701.8
577.472	663.8
577.879	671
578.286	686.2
578.714	652.8
579.121	669.6
579.528	673.4
579.935	665.8
580.364	662.8
580.771	651.2
581.178	664.4
581.585	673.4
582.014	681.6
582.421	663
582.829	667
583.236	680
583.644	671.2
584.073	665
584.481	673.6
584.889	659.2
585.296	675.8
585.726	681.4
586.134	652.2
586.542	668.6
586.95	687.2
587.358	661.6
587.787	682.4
588.196	668.2
588.604	670
589.012	676.8
589.421	665.6
589.851	665.6
590.259	677.8
590.668	669.2
591.076	714.2
591.485	660
591.894	673
592.324	680.4
592.733	678.8
593.142	655.4
593.551	670.2
593.96	710.2
594.369	652.6
594.8	663.4
595.209	665.6
595.618	655.2
596.028	663.8
596.437	668.2
596.847	672.4
597.256	665.8
597.687	672.2
598.097	672.8
598.507	662.6
598.917	670.2
599.327	669
599.736	670
600.146	679.6
600.556	665.6
600.988	682.2
601.398	670.4
601.808	684.4
602.219	654
602.629	667.6
603.039	666
603.45	700.4
603.86	667.6
604.271	681.8
604.703	668.8
605.114	664
605.525	670.4
605.935	674.2
606.346	693.6
606.757	672.2
607.168	665.6
607.579	660
607.99	672.8
608.402	664.6
608.813	668.2
609.224	664.4
609.636	647.6
610.047	659.4
610.48	664.8
610.892	670.8
611.303	675.8
611.715	666.4
612.127	652.4
612.539	671.4
612.95	671.6
613.362	653.4
613.774	653.6
614.186	655.2
614.599	661.8
615.011	688.2
615.423	664.2
615.835	667.8
616.248	661.2
616.66	670.6
617.073	661.8
617.485	662.8
617.898	677.6
618.311	671.6
618.723	663
619.136	698.8
619.549	694.2
619.962	696.4
620.375	674.2
620.788	669
621.201	664.8
621.614	671.6
622.028	654.4
622.441	671.6
622.854	686.2
623.268	657.8
623.681	670
624.095	672.4
624.509	678
624.922	667.8
625.336	658
625.728	664.2
626.142	670.8
626.556	682.6
626.97	664.4
627.384	668.6
627.799	658.8
628.213	669.4
628.627	670.8
629.041	653.8
629.456	666.2
629.87	670.8
630.285	675.4
630.699	677
631.093	667
631.507	677.8
631.922	680.2
632.337	686
632.752	658
633.167	668
633.582	667.8
633.997	668
634.412	655.4
634.806	665.4
635.221	657.8
635.637	677.8
636.052	654.4
636.468	666
636.883	692.4
637.299	657.4
637.715	647.6
638.109	661.8
638.525	658.2
638.941	685.6
639.357	669.6
639.773	684.6
640.189	660
640.584	666.6
641	674.6
641.416	655
641.832	667.8
642.249	669.2
642.665	673
643.06	670.8
643.477	680.6
643.894	649.2
644.31	662.4
644.727	672.4
645.123	656.4
645.54	653.4
645.957	666.8
646.374	692.8
646.77	669.6
647.187	699.6
647.604	676.2
648.021	653.4
648.439	665.4
648.835	664.2
649.252	666
649.67	670.8
650.088	666
650.484	668.4
650.902	673.4
651.32	677.8
651.738	660
652.134	681.8
652.552	698.8
652.971	677
653.389	660.8
653.786	679.2
654.204	687.2
654.622	652.6
655.019	667.8
655.438	669
655.857	660.4
656.275	672
656.673	666
657.091	749
657.51	668.6
657.908	674.4
658.327	682.6
658.746	651
659.144	671.8
659.563	674.6
659.982	671
660.38	647.2
660.8	661.8
661.219	675.4
661.617	672.2
662.037	664
662.457	686
662.855	652.4
663.275	701.8
663.695	665
664.094	658.4
664.514	668
664.934	657.2
665.333	668.2
665.753	655.6
666.152	658.2
666.572	669.8
666.993	685.8
667.392	655.6
667.812	661.4
668.212	655.4
668.632	669.6
669.053	654.8
669.453	678
669.874	673.8
670.273	674.2
670.694	659
671.116	679.8
671.515	675
671.937	662.4
672.337	662.2
672.758	663.2
673.158	672.6
673.58	650.6
673.98	662
674.402	680.8
674.824	662.6
675.224	665
675.646	654.6
676.047	663
676.469	665.6
676.869	677
677.292	675.8
677.693	667
678.115	660.6
678.516	672.6
678.939	667.8
679.34	662.6
679.762	682
680.164	671.4
680.586	654
680.988	670.8
681.411	702.2
681.812	662.6
682.236	656.4
682.637	654.8
683.061	660.4
683.462	668
683.864	659.4
684.288	677.2
684.69	660
685.114	680.8
685.516	674.6
685.94	663.2
686.342	679.6
686.766	654.8
687.168	662.4
687.571	682.8
687.995	669.2
688.398	653.8
688.822	656.2
689.225	683.2
689.628	680
690.052	665
690.456	670.2
690.88	663.2
691.284	663.8
691.687	669.2
692.112	664.4
692.515	657.8
692.919	672.2
693.344	664.4
693.747	660.4
694.173	658.4
694.577	682.4
694.98	652.2
695.406	661.2
695.81	667.2
696.214	669.4
696.64	672.2
697.044	672.8
697.448	671.8
697.874	663.2
698.279	661.6
698.684	657.8
699.11	655.8
699.514	658.6
699.919	660.6
700.324	656.2
700.75	668.4
701.156	669.4
701.561	673.2
701.987	670.8
702.393	676
702.798	680.2
703.203	668.6
703.63	663
704.036	657.8
704.442	660.8
704.847	663.2
705.274	663.2
705.68	669
706.086	680.8
706.492	663.6
706.92	668.6
707.326	675
707.732	659.4
708.139	655.8
708.545	655.2
708.973	662.2
709.38	663.8
709.786	651.2
710.193	675.2
710.6	660.4
711.028	646.4
711.435	666.6
711.842	661.4
712.249	651.4
712.656	656.4
713.064	672.6
713.492	655.8
713.9	661.4
714.307	658.2
714.715	660
715.123	666.8
715.53	667.2
715.938	673.6
716.367	663
716.775	663.8
717.184	661
717.592	665.6
718	677.6
718.408	703
718.816	713.6
719.225	668.2
719.633	664.8
720.042	659.6
720.472	664.6
720.881	689.6
721.29	665.2
721.699	657
722.108	671.4
722.517	663.4
722.926	657.4
723.335	666
723.744	663
724.154	668.6
724.563	664
724.973	666.6
725.382	651.6
725.792	663.4
726.202	658.4
726.612	686.8
727.022	664.8
727.432	647.2
779.813	653.8
780.223	702.8
780.634	656.2
781.044	646.8
781.454	662
781.865	680.6
782.276	652.8
782.686	679.6
783.097	656.6
783.508	657.8
783.919	660.2
784.33	666.8
784.741	673.2
785.152	644.4
785.563	643.6
785.974	651.6
786.386	673.4
786.776	659.4
787.188	659.8
787.599	651
788.011	674.8
788.423	670.6
788.835	672.2
789.247	655.4
789.659	666
790.071	651
790.483	710.6
790.874	657
791.286	669
791.699	652.6
792.111	661
792.524	662
792.937	665.6
793.349	649.6
793.741	652.4
794.154	654.6
794.567	682.6
794.98	662.4
795.393	646.2
795.785	683.8
796.198	654
796.612	659
797.026	656.6
797.439	651
797.831	658.2
798.245	646.6
798.659	653.2
799.073	665.2
799.487	660.2
799.88	657
800.294	661.2
800.708	664.8
801.123	664
801.516	672.4
801.93	646.8
802.345	646.4
802.76	652.2
803.153	673.2
803.568	672.2
803.983	678.6
804.377	663.8
804.792	649
805.207	644.6
805.601	657.4
806.016	691.2
806.432	647.2
806.826	707.4
807.242	675.8
807.658	662.6
808.052	658.8
808.468	656.8
808.884	649.6
809.279	653
809.695	673.2
810.111	690
810.506	660.4
810.922	684.4
811.339	655
811.734	669.4
812.151	655.8
812.546	652.2
812.963	657.2
813.38	657.2
813.776	661.2
814.193	683
814.589	656.2
815.006	660.6
815.402	657.6
815.82	660.8
816.237	659
816.633	655
817.051	648.8
817.448	665
817.866	650.2
818.262	681.8
818.68	660
819.077	656.6
819.495	650.6
819.892	706.8
820.311	652.6
820.708	654.2
821.127	658.4
821.524	670.4
821.943	667.8
822.34	687
822.759	667.8
823.157	660.6
823.576	678.8
823.974	670.6
824.393	745.6
824.791	651.4
825.189	661.4
825.609	654.6
826.007	661.4
826.427	651.6
826.826	661
827.246	663.4
827.644	643.6
828.043	667.4
828.463	656.4
828.862	673
829.261	665.4
829.682	648.4
830.081	668.2
830.502	653.4
830.901	664.8
831.301	658.2
831.722	648.4
832.121	664.2
832.521	650
832.943	662.6
833.342	664
833.742	655.8
834.164	659
834.564	653.6
834.965	658.2
835.386	655.8
835.787	665.8
836.188	655
836.588	660.8
837.01	656.8
837.411	648.6
837.812	671
838.213	669.8
838.636	654.4
839.037	744.4
839.438	663
839.84	669.4
840.263	668.4
840.664	666.8
841.066	663.6
841.468	665.6
841.891	652.2
842.293	669
842.695	667.2
843.098	675
843.5	661.8
843.902	668.6
844.326	662.2
844.729	669.2
845.131	668.4
845.534	662.6
845.937	675.6
846.34	677.8
846.764	650.4
847.167	663.6
847.571	659.6
847.974	653.8
848.377	658.6
848.781	709.2
849.184	672.8
849.588	652.8
849.992	658.4
850.396	660.6
850.821	676.6
851.225	658.8
851.63	649.2
852.034	672.4
852.438	658
852.843	711.6
853.247	645.2
853.652	650.4
854.057	682.2
854.462	661.8
854.867	655.4
855.272	693.8
855.677	663.2
856.082	658.2
