#lambda/nm	C1
208.295	544.4
208.67	496.4
209.045	458.6
209.419	457.6
209.794	688.8
210.169	666.2
210.544	809.8
210.919	693.4
211.295	685.2
211.67	689.6
212.045	686.2
212.421	682.2
212.796	727.2
213.172	683.8
213.547	679
213.923	687.4
214.299	678.2
214.675	698.4
215.051	691.6
215.427	705.6
215.803	707.8
216.179	695.6
216.555	675.2
216.932	691
217.308	700.4
217.684	691.2
218.061	690
218.438	690.8
218.814	686.4
219.191	697.2
219.568	685.8
219.945	680.4
220.322	695.4
220.699	690.6
221.076	702
221.453	686.6
221.83	682.2
222.208	697.2
222.585	690.4
222.962	689.6
223.34	689
223.717	686.6
224.095	693.6
224.473	703
224.851	688.4
225.229	675.2
225.607	706.2
225.985	681.2
226.363	691
226.741	692.2
227.119	691.6
227.497	703
227.876	677
228.254	705
228.633	683.8
229.011	686.4
229.39	699.8
229.769	693.4
230.148	696.2
230.527	719.4
230.905	684.8
231.284	689.8
231.664	686.4
232.043	708.8
232.422	696.6
232.801	684
233.181	694.8
233.56	686.8
233.94	692.6
234.319	675
234.699	686.4
235.079	731.2
235.458	734.2
235.838	706.4
236.218	683
236.598	675.2
236.978	686.6
237.358	682.6
237.738	682.4
238.119	704
238.499	678.2
238.88	688.8
239.26	714.6
239.641	680.2
240.021	693.4
240.402	692.4
240.783	686.2
241.163	683.6
241.544	697.4
241.925	694.6
242.306	712.6
242.687	685.2
243.069	690.4
243.45	695.6
243.831	686
244.212	676.6
244.594	724.8
244.975	696.4
245.357	689
245.739	684
246.12	692.6
246.502	704.2
246.884	686.8
247.266	687.4
247.648	693.6
248.03	719.2
248.412	699
248.794	699.8
249.176	693.4
249.559	705.6
249.941	687.8
250.323	690.8
250.706	685.8
251.089	687.6
251.471	696.4
251.854	687.4
252.237	690.2
252.62	707.4
253.002	693.8
253.385	695
253.769	706.8
254.152	687.8
254.535	698
254.918	680
255.301	684
255.685	689.8
256.068	684.2
256.452	720.4
256.835	699.6
257.219	700.6
257.603	706.2
257.986	679.2
258.37	703.4
258.754	681.6
259.138	704.4
259.522	700.2
259.906	682.6
260.29	701.8
260.675	683
261.059	694.6
261.443	683.6
261.828	694.8
262.212	693.2
262.597	680.2
262.981	689.4
263.366	702.8
263.751	700.2
264.136	687
264.521	679.4
264.906	676
265.291	695.6
265.676	678.2
266.061	700.6
266.446	712.2
266.831	688.2
267.217	709.2
267.602	694.6
267.987	698
268.373	688.2
268.759	696
269.144	698.6
269.53	691.8
269.916	692.2
270.302	681.2
270.688	696.6
271.074	696.4
271.46	707.8
271.846	731.2
272.232	689.2
272.618	684.8
273.004	693
273.391	703.4
273.777	709.8
274.164	704.2
274.55	702.4
274.937	701
275.324	686.4
275.71	701.6
276.097	706.4
276.484	690.8
276.871	697.4
277.258	695.6
277.645	689.6
278.032	679.2
278.419	679.8
278.807	695.8
279.194	681.8
279.581	676.4
279.969	698.2
280.356	696.4
280.744	689.4
281.131	715.6
281.519	700.2
281.907	686.4
282.295	689.8
282.682	701.2
283.07	698.8
283.458	709
283.846	712.2
284.235	713.4
284.623	708.2
285.011	681.4
285.399	699.6
285.788	692.4
286.176	680.6
286.565	709
286.953	685.4
287.342	691.2
287.731	686.8
288.119	688.8
288.508	691.6
288.897	700.8
289.286	685.4
289.675	695.8
290.064	706.8
290.453	689.4
290.821	689
291.21	710.2
291.599	687.8
291.989	701.6
292.378	697
292.768	719.8
293.157	699.2
293.547	694.8
293.936	698.2
294.326	688.6
294.716	700.6
295.106	684.8
295.496	710
295.886	696.4
296.276	693.8
296.666	682
297.056	686.4
297.446	676.8
297.836	713.4
298.227	684.6
298.617	696.2
299.008	706
299.398	688
299.789	684.6
300.179	701.4
300.57	714.2
300.961	699.4
301.352	690.8
301.742	704.2
302.133	700.4
302.524	693.6
302.915	694.2
303.307	679
303.698	709.2
304.089	696.4
304.48	687.8
304.872	691.6
305.263	686.2
305.655	678
306.046	701
306.438	692
306.829	684.4
307.221	708
307.613	689.6
308.005	701.8
308.397	707
308.789	711
309.181	725.8
309.573	706.2
309.965	700.8
310.357	695
310.749	717
311.142	685.2
311.534	688.6
311.926	702.6
312.319	693
312.711	689.2
313.104	716.4
313.497	692.4
313.889	742
314.282	722.2
314.675	719.4
315.068	697.8
315.461	697.4
315.854	732.6
316.247	704.4
316.64	691.6
317.033	699.8
317.405	703.4
317.798	695.4
318.192	695.6
318.585	686.2
318.979	704.6
319.372	687.8
319.766	689.8
320.16	707
320.553	716.2
320.947	719.2
321.341	687.2
321.735	687
322.129	672.6
322.523	720.4
322.917	679.6
323.311	720
323.705	691
324.099	703.6
324.494	708.2
324.888	709.6
325.282	693.2
325.677	703.4
326.071	709.8
326.466	708.6
326.861	707
327.255	707.2
327.65	709
328.045	719
328.44	701
328.835	692.8
329.23	685.2
329.625	726
330.02	694.8
330.415	710.4
330.81	691.8
331.206	702.6
331.601	690.4
331.996	707
332.37	725.2
332.766	681.2
333.161	715.6
333.557	687.2
333.953	690.6
334.348	1123.6
334.744	698.4
335.14	686.8
335.536	691.6
335.932	709.8
336.328	689.2
336.724	705.2
337.12	697
337.516	697
337.913	695.4
338.309	713.2
338.705	690.2
339.102	709.8
339.498	692.8
339.895	705
340.291	687.6
340.688	694.4
341.085	683.2
341.481	695
341.878	691.8
342.275	721.2
342.672	687.4
343.069	687.4
343.466	684.6
343.842	702
344.239	689
344.636	694.2
345.033	677.4
345.431	685.2
345.828	692.4
346.225	679.4
346.623	737
347.02	694.2
347.418	696.8
347.816	700
348.213	677.4
348.611	696.6
349.009	681
349.407	699.8
349.805	673.2
350.203	680.2
350.601	711.2
350.999	688.8
351.397	752.8
351.795	684.6
352.193	694.8
352.57	699.2
352.969	705
353.367	680
353.766	682.8
354.164	689.4
354.563	696.8
354.961	700.6
355.36	693.8
355.759	691.8
356.158	685.8
356.557	677.6
356.956	673.8
357.355	679
357.754	700
358.153	692.6
358.552	720
358.951	692
359.35	704.8
359.75	688.2
360.149	671
360.527	675.2
360.926	677
361.326	687.4
361.726	698
362.125	682.4
362.525	703
362.925	681.4
363.325	695.6
363.724	691.6
364.124	681
364.524	677.6
364.924	686.2
365.324	701.6
365.725	673
366.125	691
366.525	683.4
366.904	679.4
367.304	665.8
367.705	713.4
368.105	707
368.506	679.2
368.906	678
369.307	685.4
369.708	693.6
370.108	670
370.509	702.4
370.91	681.2
371.311	684.8
371.712	692
372.113	682.8
372.514	674.6
372.894	684.8
373.295	679
373.696	704.6
374.097	697.4
374.499	722
374.9	688.4
375.301	684.8
375.703	684.8
376.105	675
376.506	688
376.908	691.2
377.309	688.2
377.711	690.6
378.113	680.6
378.493	699
378.895	685.6
379.297	699.2
379.699	664.8
380.102	691.4
380.504	687
380.906	678.2
381.308	724.2
381.71	685.6
382.113	695.4
382.515	682.2
382.918	691.8
383.299	684.2
383.701	696.6
384.104	693
384.507	666.2
384.909	681.6
385.312	669.2
385.715	680.2
386.118	691.8
386.521	678
386.924	702.2
387.327	678
387.709	670.8
388.112	666
388.515	681.2
388.918	684
389.322	683.6
389.725	676.2
390.129	709.6
390.532	699.4
390.936	687.6
391.339	676.2
391.743	688.6
392.125	675.2
392.529	692.8
392.933	699.6
393.337	690.4
393.74	683.8
394.144	685.8
394.548	676.6
394.953	687.2
395.357	700
395.761	678
396.144	684.8
396.548	690.6
396.952	684.8
397.357	684.6
397.761	684.2
398.166	688.4
398.57	683.6
398.975	673.2
399.379	684
399.763	740.8
400.168	684.2
400.572	681
400.977	686.4
401.382	708.6
401.787	692
402.192	703.6
402.597	702.8
403.002	674.4
403.386	699.8
403.791	706.4
404.197	680.8
404.602	694.6
405.007	688.6
405.413	690.2
405.818	697.2
406.224	680.6
406.608	686.2
407.014	671.8
407.42	701
407.825	682.4
408.231	691
408.637	687
409.043	694.2
409.449	669.2
409.834	678.2
410.24	675.8
410.646	698.4
411.052	696.4
411.458	691.6
411.865	692.2
412.271	688.6
412.677	678.6
413.062	692.8
413.469	673.8
413.875	720.4
414.282	696.4
414.689	688
415.095	691.4
415.502	674
415.888	690.2
416.294	674.6
416.701	735.8
417.108	678
417.515	688.8
417.923	694
418.33	719.8
418.715	702.2
419.123	690.6
419.53	685.4
419.937	695
420.345	705.6
420.752	675.2
421.16	703.2
421.546	689.6
421.953	696.2
422.361	679.2
422.769	678.4
423.177	676.4
423.585	720.6
423.992	708.8
424.379	697.6
424.787	700
425.195	709
425.603	682.2
426.011	691.4
426.419	700.2
426.806	686
427.214	693.4
427.623	698
428.031	710.2
428.44	690.2
428.848	704.8
429.235	707
429.644	696.8
430.053	687.8
430.461	706.4
430.87	723
431.279	694.2
431.666	684.4
432.075	688.6
432.484	702.6
432.893	682.4
433.302	721.4
433.711	754.4
434.099	701
434.508	683.2
434.918	682.4
435.327	701.6
435.737	700.8
436.125	695.6
436.534	694.4
436.944	696.4
437.353	693.8
437.763	711.2
438.173	680.2
438.561	695.2
438.971	680.2
439.381	684
439.791	690
440.201	677.2
440.589	693.6
440.999	697.6
441.409	689.6
441.819	681.2
442.23	703.8
442.619	714.2
443.029	695.4
443.439	700
443.85	714.6
444.26	709.2
444.649	699
445.06	700.6
445.471	700
445.881	701
446.292	721
446.682	726.6
447.092	692.6
447.503	768
447.914	702.4
448.325	704.2
448.715	705.4
449.126	701.2
449.537	693.6
449.948	698.8
450.338	700
450.75	717.4
451.161	704.8
451.572	718.2
451.984	696.4
452.374	688.4
452.786	701.4
453.197	700.6
453.609	711.2
453.999	682.8
454.411	694
454.823	717.6
455.235	707.8
455.647	700.8
456.037	707.2
456.449	687.2
456.862	704
457.274	701.4
457.665	695.2
458.077	718.4
458.489	755.4
458.902	705.2
459.293	705.2
459.705	709.4
460.118	698.4
460.53	711.2
460.921	698.2
461.334	709.2
461.747	720.2
462.16	716.4
462.551	725.4
462.964	720.8
463.377	700.4
463.79	707.8
464.182	719.2
464.595	700.4
465.008	709.6
465.421	723
465.813	702.6
466.226	717.6
466.64	706.6
467.053	757.8
467.445	722.2
467.859	741.4
468.272	710.4
468.686	723
469.078	702.8
469.492	701.2
469.906	705.4
470.298	720.4
470.712	697.8
471.126	774.4
471.54	695
471.933	698.4
472.347	704.8
472.761	705
473.175	685
473.568	702.6
473.982	702.4
474.397	708
474.79	706.8
475.204	715
475.619	712
476.033	717
476.426	710.8
476.841	694.8
477.256	732.6
477.649	693.4
478.064	702
478.479	704.8
478.872	694
479.287	685
479.702	705.2
480.118	705.4
480.511	704.6
480.927	702.4
481.342	700.6
481.736	703
482.151	695.8
482.566	727.4
482.96	709.8
483.376	719.2
483.792	698.2
484.186	709
484.602	699.4
485.017	711.6
485.412	713.2
485.827	705.2
486.243	703.2
486.638	735.6
487.054	709.4
487.47	732.8
487.865	704.2
488.281	696.2
488.697	692.4
489.092	704
489.508	706.2
489.925	717.8
490.32	689
490.736	704.2
491.153	701.6
491.548	706.6
491.964	716.4
492.381	685.6
492.776	707
493.193	699.8
493.61	715
494.006	702.8
494.422	711.2
494.84	697.6
495.235	711
495.652	702.6
496.069	699.8
496.465	696.2
496.883	704.4
497.3	728.8
497.696	692.4
498.113	708.4
498.509	684.4
498.927	686.4
499.344	691.2
499.741	688.2
500.158	707.6
500.576	714.6
500.973	702.8
501.39	690.8
501.787	686.4
502.205	702
502.623	695.8
503.02	692.8
503.438	688.6
503.856	690
504.253	705.2
504.671	700.8
505.068	696.6
505.486	697.8
505.905	712
506.302	687.8
506.72	704.8
507.118	682.2
507.536	699
507.955	691.2
508.352	697.4
508.771	704.6
509.169	700.8
509.587	690.4
510.006	692.6
510.404	683
510.823	686
511.221	695.2
511.64	688
512.038	708.8
512.457	684.4
512.877	689.2
513.275	683.2
513.694	698.6
514.092	688.6
514.512	688.4
514.91	698.4
515.33	687.4
515.749	686.6
516.148	694.2
516.568	692.8
516.966	684.6
517.386	685.8
517.785	693.8
518.205	683
518.603	685.6
519.024	676.8
519.444	693.2
519.843	701.4
520.263	703.4
520.662	694
521.082	684.6
521.481	693.4
521.902	697.2
522.301	690.2
522.722	691.4
523.121	684.2
523.542	688.8
523.963	692
524.362	690.2
524.783	688.2
525.183	684
525.604	688.8
526.003	673.2
526.425	683.4
526.824	695.4
527.246	692.2
527.646	693.2
528.067	690.2
528.467	684.8
528.888	695
529.289	677.4
529.71	680
530.11	675.2
530.532	675.2
530.932	679
531.354	675.8
531.755	721.6
532.176	696.8
532.577	684.2
532.999	684.6
533.4	671.4
533.822	696.2
534.223	695.2
534.645	681.4
535.046	689
535.468	682
535.869	708.4
536.292	681
536.693	722.6
537.115	681.2
537.516	675.8
537.939	677.8
538.34	695.2
538.742	695.8
539.165	690.8
539.566	680
539.989	670.2
540.391	676.2
540.814	683
541.216	679.6
541.639	678.8
542.041	684.8
542.464	678.4
542.866	675.4
543.268	669.8
543.691	688.6
544.093	695.4
544.517	701.2
544.919	678.2
545.343	708
545.745	667.6
546.147	678.2
546.571	686.2
546.974	675.4
547.398	677.8
547.8	699
548.224	684
548.627	673.2
549.03	692.2
549.454	678
549.857	672.4
550.281	678
550.684	683.8
551.087	692
551.512	681.4
551.915	685.2
552.34	671.8
552.743	672.6
553.146	678
553.571	680
553.975	699
554.399	666.2
554.803	735
555.207	674.8
555.632	667.6
556.036	673.8
556.461	667.8
556.865	676
557.268	673.2
557.694	671.4
558.098	679.4
558.502	689.8
558.927	670.4
559.332	677
559.736	673.4
560.162	689.6
560.566	679.6
560.992	693
561.396	677.8
561.801	677.6
562.227	679.2
562.631	670.4
563.036	672.4
563.462	688.6
563.867	676
564.272	660
564.698	688.2
565.103	669.4
565.508	702.4
565.935	670.8
566.34	672.4
566.745	689
567.172	669
567.577	696.6
567.982	703.2
568.409	683
568.815	663.4
569.22	677.4
569.626	683.6
570.053	656.2
570.459	677
570.865	683.4
571.292	681.8
571.698	685.6
572.104	669.2
572.531	672
572.937	682
573.343	670.4
573.75	676.8
574.177	676.2
574.583	678.6
574.99	670.8
575.396	682.4
575.824	670
576.231	679.2
576.637	672.8
577.065	705.4
577.472	672.2
577.879	676.6
578.286	692.8
578.714	663.6
579.121	672.2
579.528	687.6
579.935	681.6
580.364	671
580.771	655.6
581.178	665
581.585	676.6
582.014	681.6
582.421	675.8
582.829	672
583.236	685.6
583.644	662.8
584.073	672
584.481	665.4
584.889	661.2
585.296	681
585.726	677.8
586.134	657
586.542	666.8
586.95	692.6
587.358	654.4
587.787	670.2
588.196	659
588.604	673.4
589.012	670.6
589.421	659.4
589.851	665.8
590.259	676.4
590.668	662.6
591.076	712.4
591.485	661.8
591.894	665.6
592.324	686.8
592.733	686.6
593.142	646.2
593.551	661.8
593.96	707.6
594.369	646.8
594.8	667.4
595.209	673.8
595.618	650.8
596.028	663.2
596.437	657.8
596.847	675.8
597.256	676
597.687	679
598.097	668.6
598.507	655.4
598.917	674.2
599.327	675.8
599.736	679
600.146	688.6
600.556	676
600.988	692.4
601.398	669.6
601.808	685.8
602.219	658.2
602.629	666.6
603.039	669
603.45	702.4
603.86	675.4
604.271	686.2
604.703	670
605.114	672
605.525	668.6
605.935	681.6
606.346	702
606.757	679.8
607.168	674.4
607.579	675.8
607.99	682.6
608.402	671.8
608.813	685.8
609.224	664
609.636	656.4
610.047	669.2
610.48	675.6
610.892	675.2
611.303	686.8
611.715	668.8
612.127	663.8
612.539	667.6
612.95	673.4
613.362	659.6
613.774	658.8
614.186	667.6
614.599	671.8
615.011	680.6
615.423	667
615.835	658.8
616.248	655.6
616.66	674.8
617.073	654.2
617.485	663.4
617.898	675
618.311	670
618.723	658.8
619.136	693.4
619.549	675.4
619.962	691.6
620.375	657
620.788	671.4
621.201	657
621.614	673.8
622.028	659.8
622.441	657.2
622.854	678.8
623.268	656.2
623.681	680.8
624.095	675.4
624.509	680.8
624.922	683
625.336	654.2
625.728	671.8
626.142	675.2
626.556	689.4
626.97	675.8
627.384	675
627.799	666.2
628.213	691.6
628.627	658.6
629.041	663.8
629.456	668.4
629.87	669.4
630.285	682.2
630.699	677.4
631.093	667.4
631.507	679.6
631.922	673.8
632.337	682.8
632.752	661.8
633.167	666.4
633.582	662.4
633.997	656.8
634.412	664.8
634.806	671.2
635.221	655.2
635.637	677.2
636.052	662.2
636.468	671.6
636.883	683.6
637.299	665.4
637.715	655
638.109	671.2
638.525	658.6
638.941	682
639.357	671.2
639.773	683.6
640.189	658.8
640.584	670.4
641	664.8
641.416	651.2
641.832	668.6
642.249	660.4
642.665	664.4
643.06	673.6
643.477	681.4
643.894	660
644.31	668
644.727	661
645.123	666.6
645.54	653.6
645.957	664.6
646.374	684.4
646.77	657.4
647.187	702.8
647.604	671.2
648.021	652.4
648.439	660.8
648.835	674
649.252	661
649.67	663.6
650.088	668.8
650.484	675
650.902	673.4
651.32	675.2
651.738	664.6
652.134	674.4
652.552	690.8
652.971	676.4
653.389	665.8
653.786	695
654.204	694.2
654.622	664.6
655.019	682.8
655.438	677.6
655.857	672.8
656.275	668.2
656.673	656.6
657.091	749.2
657.51	662.6
657.908	676
658.327	686.4
658.746	650.2
659.144	676
659.563	682.6
659.982	668
660.38	656
660.8	663.8
661.219	671.6
661.617	669.2
662.037	659.4
662.457	684.8
662.855	661.6
663.275	700
663.695	674.4
664.094	672.8
664.514	674.4
664.934	653
665.333	669.6
665.753	664.6
666.152	656.6
666.572	657
666.993	686.8
667.392	663.2
667.812	669.8
668.212	659.8
668.632	678.2
669.053	660.4
669.453	671.6
669.874	670.8
670.273	659.8
670.694	647.4
671.116	677.4
671.515	672.4
671.937	668.6
672.337	661.6
672.758	657.8
673.158	668.6
673.58	658.2
673.98	669.2
674.402	680
674.824	673.6
675.224	657.8
675.646	659.4
676.047	659
676.469	672.8
676.869	668.8
677.292	665.2
677.693	669
678.115	665
678.516	669.8
678.939	670.4
679.34	662.2
679.762	676.4
680.164	675.8
680.586	660.6
680.988	669.6
681.411	701.8
681.812	667.8
682.236	660.4
682.637	660
683.061	650
683.462	669.4
683.864	664.2
684.288	667.2
684.69	656
685.114	675.4
685.516	677
685.94	660.2
686.342	671.8
686.766	663
687.168	659
687.571	683
687.995	665.4
688.398	644.6
688.822	666.8
689.225	687.4
689.628	688.8
690.052	663.2
690.456	672.4
690.88	662
691.284	659.4
691.687	674.6
692.112	655.4
692.515	654
692.919	661.6
693.344	669.6
693.747	651.2
694.173	659.8
694.577	682.6
694.98	663.8
695.406	657.2
695.81	662.8
696.214	665.4
696.64	663.8
697.044	665.2
697.448	670
697.874	665.6
698.279	657
698.684	652.6
699.11	661.4
699.514	670.8
699.919	665
700.324	659.2
700.75	667.2
701.156	666.4
701.561	679
701.987	666.8
702.393	676.6
702.798	675.8
703.203	660.4
703.63	660.8
704.036	664
704.442	667
704.847	657.2
705.274	661.8
705.68	668
706.086	684.8
706.492	651.2
706.92	664.4
707.326	673.2
707.732	660
708.139	657.2
708.545	657.8
708.973	658.4
709.38	659.6
709.786	652.2
710.193	694.4
710.6	668.4
711.028	661
711.435	667.2
711.842	658.8
712.249	661
712.656	664.8
713.064	673.4
713.492	650.6
713.9	666.2
714.307	670.2
714.715	658.2
715.123	674
715.53	661.6
715.938	677
716.367	658
716.775	669.4
717.184	660.8
717.592	659.4
718	678.2
718.408	702
718.816	711
719.225	663.8
719.633	671.2
720.042	646.6
720.472	657.2
720.881	682.8
721.29	670.4
721.699	650
722.108	670.2
722.517	664
722.926	653
723.335	658.6
723.744	663.8
724.154	660.8
724.563	671.2
724.973	654.4
725.382	659
725.792	661.8
726.202	657
726.612	678.4
727.022	663.6
727.432	658.8
779.813	665.4
780.223	717.2
780.634	658.8
781.044	657.6
781.454	655.6
781.865	682.6
782.276	647.4
782.686	674.2
783.097	661.2
783.508	655.4
783.919	669.2
784.33	681.2
784.741	670.8
785.152	657.4
785.563	650.8
785.974	654.2
786.386	668.2
786.776	664
787.188	667
787.599	650.2
788.011	666.6
788.423	663
788.835	659.8
789.247	650.8
789.659	652
790.071	647.6
790.483	714
790.874	649.6
791.286	665.8
791.699	658.6
792.111	667
792.524	662.2
792.937	657.4
793.349	650.2
793.741	646.4
794.154	656
794.567	679
794.98	660.8
795.393	656.4
795.785	686.8
796.198	652.2
796.612	665.6
797.026	661
797.439	647.8
797.831	659.4
798.245	661
798.659	656.4
799.073	659
799.487	656.4
799.88	664.8
800.294	662.4
800.708	670.8
801.123	662
801.516	679.2
801.93	657.2
802.345	648.2
802.76	671.8
803.153	671.4
803.568	672.6
803.983	679.4
804.377	666
804.792	649.2
805.207	649.4
805.601	663.8
806.016	695.4
806.432	647
806.826	700.8
807.242	679
807.658	671.6
808.052	659.4
808.468	654.6
808.884	655
809.279	663.6
809.695	678
810.111	690.4
810.506	666
810.922	670.6
811.339	657
811.734	671.4
812.151	658.2
812.546	659.6
812.963	652.2
813.38	663.4
813.776	664.2
814.193	691.2
814.589	656.6
815.006	661.4
815.402	651.8
815.82	651
816.237	651.8
816.633	663.6
817.051	647.2
817.448	665
817.866	651.6
818.262	676
818.68	656
819.077	647.6
819.495	663.8
819.892	710
820.311	648.6
820.708	653.8
821.127	657.4
821.524	669.8
821.943	672
822.34	676.2
822.759	662.8
823.157	659.8
823.576	672.6
823.974	669
824.393	797.8
824.791	654.2
825.189	645.2
825.609	657.8
826.007	662.8
826.427	648.6
826.826	657.6
827.246	663.8
827.644	646.2
828.043	671.4
828.463	658
828.862	673.6
829.261	664.6
829.682	655.4
830.081	669.8
830.502	651.8
830.901	670.2
831.301	656.2
831.722	654.8
832.121	666.2
832.521	657.6
832.943	662.6
833.342	669.8
833.742	657
834.164	656.8
834.564	648.6
834.965	655.4
835.386	663.8
835.787	659.4
836.188	655.6
836.588	666.4
837.01	657.4
837.411	653.6
837.812	662.8
838.213	663.2
838.636	660.2
839.037	733
839.438	667.8
839.84	670.6
840.263	668.4
840.664	666.4
841.066	657.6
841.468	656.6
841.891	664.8
842.293	673
842.695	662.6
843.098	662.2
843.5	659.4
843.902	657.4
844.326	662.4
844.729	657.4
845.131	672
845.534	666.2
845.937	673.4
846.34	675.8
846.764	642
847.167	666.2
847.571	656.8
847.974	661.8
848.377	656.6
848.781	711.2
849.184	665.2
849.588	656.4
849.992	653.6
850.396	658.6
850.821	678.6
851.225	660.8
851.63	650.8
852.034	675.8
852.438	658
852.843	798.4
853.247	658.8
853.652	656.2
854.057	679.4
854.462	663.6
854.867	659.2
855.272	698
855.677	664.6
856.082	645.8
856.487	647.8
