#lambda/nm	C1
208.295	537
208.67	494.6
209.045	455.4
209.419	460
209.794	694.2
210.169	676.2
210.544	807
210.919	697.4
211.295	678.8
211.67	686.4
212.045	691.6
212.421	684.8
212.796	727.2
213.172	684.6
213.547	669.6
213.923	689.8
214.299	684.8
214.675	698.8
215.051	693.2
215.427	696
215.803	712.2
216.179	698.4
216.555	687.2
216.932	697.4
217.308	695.2
217.684	688.8
218.061	706.6
218.438	692.8
218.814	680
219.191	702
219.568	687.8
219.945	690.4
220.322	700.2
220.699	696
221.076	697.2
221.453	695.2
221.83	684.4
222.208	685.2
222.585	693
222.962	690.6
223.34	700.6
223.717	693.4
224.095	685.2
224.473	699.6
224.851	679.6
225.229	680.4
225.607	706.2
225.985	673
226.363	699.4
226.741	697.2
227.119	680.8
227.497	700.8
227.876	681.2
228.254	699.6
228.633	696.6
229.011	692.4
229.39	693.6
229.769	694
230.148	691.8
230.527	716.8
230.905	695.2
231.284	697
231.664	680
232.043	704.4
232.422	697
232.801	686.2
233.181	698.8
233.56	688
233.94	689
234.319	681.4
234.699	689.2
235.079	737.6
235.458	743.2
235.838	711.4
236.218	682.6
236.598	683
236.978	686.8
237.358	688
237.738	687.6
238.119	701
238.499	683.8
238.88	691.8
239.26	719.4
239.641	681.2
240.021	686.6
240.402	690.2
240.783	684.2
241.163	686.6
241.544	695.4
241.925	693.2
242.306	706.8
242.687	684.4
243.069	695.6
243.45	694.2
243.831	675.8
244.212	689.2
244.594	730.8
244.975	702.2
245.357	692
245.739	676.2
246.12	688.2
246.502	709.8
246.884	689.6
247.266	692.6
247.648	695.8
248.03	720
248.412	695
248.794	702.2
249.176	687.6
249.559	704.4
249.941	680.8
250.323	683.4
250.706	680.2
251.089	693.8
251.471	699
251.854	690.6
252.237	696.8
252.62	702.2
253.002	691.6
253.385	690.2
253.769	715.4
254.152	681.2
254.535	703.2
254.918	679.4
255.301	697.8
255.685	685.8
256.068	686.4
256.452	715.8
256.835	702.2
257.219	697.8
257.603	708.2
257.986	678.2
258.37	692.6
258.754	681.6
259.138	711.4
259.522	707
259.906	689.6
260.29	693.8
260.675	692.2
261.059	688.4
261.443	679.8
261.828	702.4
262.212	694.8
262.597	678.8
262.981	677.4
263.366	698.2
263.751	691.6
264.136	685.6
264.521	686.8
264.906	686.8
265.291	710.6
265.676	689.6
266.061	706.8
266.446	709.4
266.831	696.6
267.217	704.6
267.602	693.6
267.987	693.4
268.373	685.2
268.759	699.8
269.144	699.4
269.53	693.2
269.916	679.4
270.302	691.6
270.688	694.4
271.074	692
271.46	704.6
271.846	725.6
272.232	679.6
272.618	683
273.004	683.2
273.391	701.4
273.777	702.6
274.164	700.6
274.55	705
274.937	688.6
275.324	686.8
275.71	703.6
276.097	695
276.484	691.2
276.871	704.6
277.258	702.2
277.645	684.6
278.032	682.6
278.419	690.6
278.807	689.6
279.194	688.2
279.581	681.6
279.969	699.6
280.356	692.2
280.744	703
281.131	715.8
281.519	703.2
281.907	686.6
282.295	697
282.682	709
283.07	693
283.458	695.2
283.846	706.8
284.235	703.2
284.623	702.2
285.011	683.4
285.399	696.2
285.788	700
286.176	679
286.565	700.2
286.953	679
287.342	690.4
287.731	676.4
288.119	672.2
288.508	692.4
288.897	688.2
289.286	682.2
289.675	691.8
290.064	697.2
290.453	680.6
290.821	688.2
291.21	709.2
291.599	682.2
291.989	690.2
292.378	697.8
292.768	714.8
293.157	693
293.547	704.4
293.936	692.8
294.326	686.4
294.716	701.6
295.106	690.4
295.496	702
295.886	708
296.276	696
296.666	687
297.056	689
297.446	684.6
297.836	711.6
298.227	692.4
298.617	692.4
299.008	704
299.398	690
299.789	686.2
300.179	690.8
300.57	713.6
300.961	685.6
301.352	685.4
301.742	704.8
302.133	693.8
302.524	700.8
302.915	691
303.307	691.8
303.698	704.4
304.089	694.8
304.48	699.6
304.872	710.4
305.263	696.6
305.655	683.2
306.046	697
306.438	705
306.829	686.8
307.221	715.4
307.613	709.2
308.005	698.8
308.397	710
308.789	719.6
309.181	721.2
309.573	711.8
309.965	708.4
310.357	695.4
310.749	708.2
311.142	682.4
311.534	683.8
311.926	708
312.319	698.4
312.711	689
313.104	710.4
313.497	688
313.889	741
314.282	715.6
314.675	726
315.068	701.6
315.461	700
315.854	727.8
316.247	698.8
316.64	693
317.033	691.6
317.405	705.2
317.798	701.4
318.192	698.8
318.585	683.8
318.979	696
319.372	695.8
319.766	686.2
320.16	704.6
320.553	721.2
320.947	715
321.341	700.8
321.735	701.2
322.129	669.4
322.523	720.6
322.917	687.4
323.311	701
323.705	695.6
324.099	703.4
324.494	722.4
324.888	711.4
325.282	701.4
325.677	712.8
326.071	704.2
326.466	705.6
326.861	698
327.255	717.6
327.65	709.2
328.045	712.4
328.44	689.6
328.835	702.4
329.23	685.4
329.625	728
330.02	686.4
330.415	714
330.81	694.4
331.206	695
331.601	692
331.996	710.6
332.37	723.2
332.766	681.8
333.161	719.2
333.557	684.4
333.953	693
334.348	1026.4
334.744	692.2
335.14	690.2
335.536	695.8
335.932	714.4
336.328	687.8
336.724	709.6
337.12	693
337.516	708.8
337.913	693.4
338.309	709.8
338.705	691.2
339.102	710.6
339.498	695
339.895	713.4
340.291	693.4
340.688	702
341.085	691.8
341.481	698.4
341.878	698
342.275	713.6
342.672	686.6
343.069	685.8
343.466	680.6
343.842	704.6
344.239	684.2
344.636	698.6
345.033	682.6
345.431	688.6
345.828	699.2
346.225	686.8
346.623	734
347.02	684.8
347.418	705.2
347.816	710.2
348.213	682.2
348.611	697.4
349.009	676.4
349.407	706.6
349.805	673.2
350.203	678
350.601	706.2
350.999	693.8
351.397	757.4
351.795	698.8
352.193	696.8
352.57	700.6
352.969	712.4
353.367	684.4
353.766	678.4
354.164	687.4
354.563	707.4
354.961	698
355.36	686.6
355.759	686
356.158	682.6
356.557	686
356.956	687.6
357.355	682.4
357.754	694.2
358.153	693.6
358.552	720.8
358.951	691
359.35	713.4
359.75	684.8
360.149	682.6
360.527	670.6
360.926	678.6
361.326	686.2
361.726	689
362.125	678
362.525	700.4
362.925	691.4
363.325	688.2
363.724	686.2
364.124	685.4
364.524	689.6
364.924	679.8
365.324	699.4
365.725	672.8
366.125	694.8
366.525	685.8
366.904	679.4
367.304	673.8
367.705	709.6
368.105	702.8
368.506	691.2
368.906	681.4
369.307	686.6
369.708	689.8
370.108	673.4
370.509	700
370.91	676.4
371.311	684.6
371.712	690
372.113	694
372.514	677.2
372.894	687.4
373.295	674.8
373.696	701
374.097	700.4
374.499	711.6
374.9	684.8
375.301	668.2
375.703	682.6
376.105	679.4
376.506	693.2
376.908	688.8
377.309	684.6
377.711	678.4
378.113	677.4
378.493	686.4
378.895	680.4
379.297	690.6
379.699	661.6
380.102	685.4
380.504	688.6
380.906	682.2
381.308	712.4
381.71	682.6
382.113	699.6
382.515	676.6
382.918	689
383.299	686.2
383.701	692.6
384.104	686.8
384.507	665.4
384.909	683.6
385.312	676.8
385.715	677
386.118	687.8
386.521	671
386.924	698.6
387.327	676.2
387.709	675.6
388.112	658.4
388.515	679.8
388.918	681
389.322	690.6
389.725	679.8
390.129	709.8
390.532	688.8
390.936	686
391.339	679.6
391.743	689.6
392.125	680.2
392.529	694.8
392.933	693.8
393.337	672.6
393.74	678
394.144	681.2
394.548	670.2
394.953	681.2
395.357	687.8
395.761	677.6
396.144	676.6
396.548	676.4
396.952	677.8
397.357	687.4
397.761	675.4
398.166	686.2
398.57	678.8
398.975	672.8
399.379	690.8
399.763	732.6
400.168	688.8
400.572	682.4
400.977	680.4
401.382	707.8
401.787	693.4
402.192	709
402.597	701.8
403.002	665.6
403.386	703.6
403.791	707.4
404.197	675.6
404.602	684
405.007	686.6
405.413	685
405.818	686.8
406.224	667.4
406.608	678.4
407.014	665.6
407.42	709.6
407.825	672.8
408.231	705.4
408.637	691.2
409.043	702
409.449	676.4
409.834	671.4
410.24	690
410.646	693.6
411.052	691
411.458	688.6
411.865	700.4
412.271	695.6
412.677	682.2
413.062	693.6
413.469	676
413.875	710.4
414.282	702.6
414.689	695.6
415.095	698.2
415.502	684
415.888	689.8
416.294	671.8
416.701	742
417.108	677.4
417.515	700.2
417.923	683.8
418.33	711
418.715	694.6
419.123	685.4
419.53	683.4
419.937	687
420.345	707
420.752	688.6
421.16	703.4
421.546	685.6
421.953	700.4
422.361	680.2
422.769	680.2
423.177	681.4
423.585	717.6
423.992	706.4
424.379	701.2
424.787	702
425.195	711.2
425.603	688.8
426.011	698.2
426.419	700.2
426.806	687.8
427.214	695
427.623	710
428.031	712.8
428.44	699.4
428.848	711.2
429.235	711.4
429.644	695.2
430.053	684.6
430.461	703.2
430.87	718.4
431.279	706
431.666	691.8
432.075	693.6
432.484	698.6
432.893	685.6
433.302	708.4
433.711	745.8
434.099	700.4
434.508	694.8
434.918	676
435.327	696.6
435.737	699.2
436.125	686
436.534	703.8
436.944	697.4
437.353	699.2
437.763	714.2
438.173	689.8
438.561	710.2
438.971	676
439.381	686.8
439.791	691.4
440.201	668
440.589	695
440.999	697.2
441.409	691.6
441.819	685.8
442.23	704.6
442.619	700.6
443.029	699.2
443.439	703.2
443.85	702.4
444.26	707.2
444.649	703
445.06	684.6
445.471	679.2
445.881	694.2
446.292	706.6
446.682	719.2
447.092	685.6
447.503	754
447.914	694
448.325	701.8
448.715	706.2
449.126	684.6
449.537	695.6
449.948	700
450.338	696.2
450.75	696.4
451.161	698.2
451.572	697.8
451.984	684.6
452.374	680
452.786	696
453.197	696.2
453.609	699.4
453.999	677
454.411	680.4
454.823	698.6
455.235	683.6
455.647	688.6
456.037	694.4
456.449	673.4
456.862	695.2
457.274	699
457.665	682.2
458.077	696.4
458.489	727.4
458.902	690.4
459.293	695.2
459.705	691.2
460.118	687.2
460.53	695.4
460.921	695.4
461.334	687.8
461.747	692
462.16	708.8
462.551	704.6
462.964	699.4
463.377	681.2
463.79	687.8
464.182	693.4
464.595	686.2
465.008	688.8
465.421	700.6
465.813	687.8
466.226	700.8
466.64	682.8
467.053	742.6
467.445	698
467.859	706.4
468.272	677.8
468.686	710.8
469.078	693.4
469.492	677
469.906	687.6
470.298	698.6
470.712	678.2
471.126	753.2
471.54	671.6
471.933	684.8
472.347	683.4
472.761	677.8
473.175	685
473.568	680.8
473.982	676.4
474.397	694.2
474.79	690.6
475.204	698
475.619	684.4
476.033	684.4
476.426	683
476.841	681.2
477.256	711.4
477.649	678.8
478.064	675
478.479	678.2
478.872	672.4
479.287	657.8
479.702	675.2
480.118	682.4
480.511	683.6
480.927	686.8
481.342	675.2
481.736	685.2
482.151	674.8
482.566	698.6
482.96	680.2
483.376	699
483.792	674.4
484.186	688.4
484.602	676.2
485.017	689
485.412	685.8
485.827	688
486.243	684.6
486.638	707.6
487.054	691.8
487.47	707.4
487.865	671.6
488.281	677.6
488.697	681.8
489.092	679
489.508	674
489.925	692.6
490.32	672.8
490.736	680.8
491.153	691.4
491.548	682.4
491.964	696.8
492.381	672.8
492.776	689.2
493.193	687.6
493.61	690.6
494.006	679.4
494.422	690.6
494.84	674.6
495.235	700.2
495.652	682.4
496.069	683.4
496.465	667
496.883	677.4
497.3	705
497.696	681.4
498.113	686.4
498.509	675.4
498.927	670.6
499.344	673.4
499.741	669.4
500.158	683.2
500.576	689.2
500.973	685.2
501.39	665.8
501.787	668.2
502.205	676.4
502.623	671.2
503.02	671
503.438	678
503.856	679
504.253	688
504.671	683.2
505.068	672.6
505.486	673.4
505.905	705.2
506.302	683
506.72	698.2
507.118	672.6
507.536	682.2
507.955	678.2
508.352	681.4
508.771	683.2
509.169	686.4
509.587	674.8
510.006	674
510.404	661
510.823	666.4
511.221	670.2
511.64	675.8
512.038	695.8
512.457	679.4
512.877	679.2
513.275	667
513.694	683
514.092	678.2
514.512	675.2
514.91	675.8
515.33	682.8
515.749	677.8
516.148	675.2
516.568	698.4
516.966	684
517.386	675.4
517.785	683.4
518.205	677.6
518.603	674.2
519.024	669.6
519.444	688.8
519.843	681.4
520.263	692.4
520.662	680.8
521.082	678.6
521.481	674
521.902	677.8
522.301	677.8
522.722	675
523.121	671
523.542	678.2
523.963	669.6
524.362	677.6
524.783	682.8
525.183	680
525.604	675.8
526.003	668
526.425	676.4
526.824	681.2
527.246	682.4
527.646	682
528.067	679.4
528.467	670.8
528.888	679.2
529.289	671.4
529.71	682.6
530.11	669.6
530.532	669.4
530.932	670.8
531.354	665
531.755	710.4
532.176	691.4
532.577	672.8
532.999	677.2
533.4	677
533.822	689
534.223	682
534.645	669.4
535.046	673.4
535.468	678.4
535.869	701.6
536.292	671.2
536.693	714.8
537.115	681.2
537.516	670.6
537.939	674.4
538.34	700.6
538.742	691.8
539.165	674.4
539.566	682.2
539.989	674.8
540.391	665.2
540.814	686.6
541.216	680.6
541.639	679
542.041	685.6
542.464	668
542.866	667.2
543.268	665.8
543.691	680.8
544.093	679.6
544.517	699.6
544.919	669.6
545.343	696.8
545.745	669
546.147	689
546.571	668.2
546.974	665.2
547.398	681.2
547.8	697.8
548.224	674
548.627	674.4
549.03	679
549.454	666.8
549.857	657.8
550.281	671
550.684	678.8
551.087	691.4
551.512	679.4
551.915	685.8
552.34	678.2
552.743	670.4
553.146	676.2
553.571	669.6
553.975	694.6
554.399	672
554.803	735
555.207	655.2
555.632	670.8
556.036	685.8
556.461	663.6
556.865	678.8
557.268	680.2
557.694	666.6
558.098	687
558.502	681
558.927	661.6
559.332	676.2
559.736	677.8
560.162	675.8
560.566	673.4
560.992	682.8
561.396	678.8
561.801	676.4
562.227	673.2
562.631	670.6
563.036	675.4
563.462	678.6
563.867	672
564.272	666.6
564.698	677
565.103	660.8
565.508	691.6
565.935	674
566.34	672.8
566.745	690.2
567.172	667.4
567.577	701
567.982	680.8
568.409	680.6
568.815	669
569.22	664.6
569.626	682.2
570.053	658.6
570.459	679.8
570.865	689.2
571.292	680.8
571.698	675.8
572.104	655
572.531	665.6
572.937	687
573.343	666.6
573.75	672.8
574.177	678
574.583	678
574.99	683
575.396	682.6
575.824	663.4
576.231	681.2
576.637	665.2
577.065	710
577.472	667.6
577.879	663
578.286	688.8
578.714	660.8
579.121	670.8
579.528	674.6
579.935	680.4
580.364	667.2
580.771	653.6
581.178	657.2
581.585	674.2
582.014	671.4
582.421	660.8
582.829	670.4
583.236	673.2
583.644	658.8
584.073	665.6
584.481	669.8
584.889	663.4
585.296	668
585.726	667.6
586.134	664
586.542	663.8
586.95	685.8
587.358	657.6
587.787	675
588.196	651.6
588.604	664.2
589.012	660.8
589.421	667.6
589.851	661.2
590.259	679.6
590.668	668.4
591.076	716.8
591.485	665.4
591.894	678.4
592.324	683.2
592.733	678.6
593.142	649.2
593.551	665.6
593.96	674
594.369	665
594.8	660.6
595.209	672.2
595.618	652.2
596.028	659.8
596.437	662.4
596.847	671.4
597.256	672.8
597.687	669.2
598.097	673.8
598.507	663.8
598.917	664
599.327	674
599.736	669.6
600.146	675.6
600.556	668.6
600.988	680.4
601.398	670
601.808	680.8
602.219	652
602.629	665.4
603.039	671.8
603.45	695
603.86	676.8
604.271	685.4
604.703	670.4
605.114	671.2
605.525	676
605.935	674.8
606.346	691.6
606.757	678.8
607.168	674
607.579	668.8
607.99	684.8
608.402	667.4
608.813	676.4
609.224	672.4
609.636	655.6
610.047	663.4
610.48	666.2
610.892	677.4
611.303	683
611.715	665.2
612.127	662.2
612.539	665.2
612.95	674.4
613.362	653.4
613.774	657
614.186	662.2
614.599	667
615.011	673.4
615.423	667.2
615.835	657.6
616.248	654.2
616.66	672.4
617.073	655.8
617.485	672.4
617.898	676.4
618.311	670.6
618.723	667.8
619.136	702.4
619.549	692.6
619.962	704.2
620.375	669.6
620.788	674.6
621.201	660.6
621.614	680.2
622.028	670
622.441	671.2
622.854	683.2
623.268	658.8
623.681	671
624.095	667
624.509	686.6
624.922	682.6
625.336	651.2
625.728	664.2
626.142	679.2
626.556	681.6
626.97	669.4
627.384	660.4
627.799	667.2
628.213	675.4
628.627	667.6
629.041	660.6
629.456	664.4
629.87	669
630.285	687.8
630.699	678.2
631.093	664.4
631.507	681.2
631.922	668.2
632.337	681.8
632.752	652.8
633.167	668.8
633.582	662.2
633.997	666.4
634.412	664
634.806	666.8
635.221	660.6
635.637	685.4
636.052	663
636.468	666.4
636.883	696.4
637.299	664.8
637.715	662.8
638.109	672.2
638.525	658.8
638.941	685.8
639.357	678.4
639.773	682
640.189	667.2
640.584	672.2
641	665.2
641.416	654.4
641.832	674
642.249	665.8
642.665	673.4
643.06	673.6
643.477	682.4
643.894	649.2
644.31	664.8
644.727	666.6
645.123	673.4
645.54	668.4
645.957	664.2
646.374	689.6
646.77	671.4
647.187	698.8
647.604	665.2
648.021	649.2
648.439	655.8
648.835	670
649.252	679
649.67	652.4
650.088	669
650.484	666.2
650.902	678.2
651.32	672.6
651.738	667
652.134	661.8
652.552	694.2
652.971	676.8
653.389	671.8
653.786	687
654.204	691.4
654.622	661.4
655.019	666.2
655.438	668
655.857	673.4
656.275	673.6
656.673	657.4
657.091	756.6
657.51	663
657.908	677.6
658.327	689.6
658.746	656.6
659.144	671.2
659.563	677
659.982	671.4
660.38	659.4
660.8	669.6
661.219	680
661.617	673.6
662.037	662.6
662.457	689.4
662.855	648.8
663.275	704.2
663.695	668.4
664.094	661
664.514	672.4
664.934	662
665.333	677
665.753	658.4
666.152	658.8
666.572	663.4
666.993	686.6
667.392	660
667.812	663
668.212	659.8
668.632	677.8
669.053	663.8
669.453	669.8
669.874	659.8
670.273	671.4
670.694	658
671.116	675.8
671.515	677.8
671.937	663
672.337	662.4
672.758	661.2
673.158	676.8
673.58	653.6
673.98	675.6
674.402	690.4
674.824	673.8
675.224	670
675.646	648.6
676.047	662.8
676.469	661
676.869	674.4
677.292	673
677.693	662
678.115	659.8
678.516	670.8
678.939	673.4
679.34	667
679.762	682.6
680.164	677.2
680.586	664.2
680.988	676
681.411	698.4
681.812	670.6
682.236	653.4
682.637	647.8
683.061	653
683.462	662.4
683.864	661.8
684.288	663.8
684.69	657.4
685.114	676.6
685.516	670.6
685.94	646.6
686.342	681.6
686.766	658.8
687.168	660.4
687.571	681.6
687.995	657.4
688.398	642.8
688.822	662.8
689.225	685
689.628	681
690.052	666.6
690.456	666.8
690.88	660.4
691.284	649.8
691.687	669.6
692.112	656.6
692.515	661.2
692.919	665.4
693.344	667.8
693.747	660.6
694.173	658.6
694.577	672.6
694.98	664.4
695.406	663.6
695.81	666.4
696.214	673
696.64	663.8
697.044	669
697.448	677.2
697.874	670
698.279	667
698.684	660
699.11	661.6
699.514	661.8
699.919	662.4
700.324	658.2
700.75	667.4
701.156	674.2
701.561	681.2
701.987	673.4
702.393	675
702.798	676.4
703.203	663.8
703.63	657.4
704.036	654.4
704.442	666.4
704.847	654
705.274	660.2
705.68	667.2
706.086	669.4
706.492	650.4
706.92	664
707.326	673.2
707.732	648.8
708.139	647
708.545	649
708.973	658
709.38	667.8
709.786	650.6
710.193	688.4
710.6	661.4
711.028	661.4
711.435	666
711.842	675.8
712.249	661
712.656	666.2
713.064	662.8
713.492	652.2
713.9	663.6
714.307	663.8
714.715	665.6
715.123	671.2
715.53	666.6
715.938	673.6
716.367	660.4
716.775	659.4
717.184	651.2
717.592	658.2
718	679
718.408	703
718.816	705
719.225	671.6
719.633	670.6
720.042	658
720.472	657
720.881	691.4
721.29	674.2
721.699	653.8
722.108	670.4
722.517	666
722.926	665.4
723.335	676.2
723.744	666
724.154	665.8
724.563	675.2
724.973	663.8
725.382	661
725.792	669
726.202	658.4
726.612	686.6
727.022	660.4
727.432	651
779.813	667.2
780.223	719
780.634	659.4
781.044	659.2
781.454	658
781.865	681.4
782.276	655.6
782.686	675.8
783.097	654.6
783.508	657.6
783.919	657
784.33	669.2
784.741	683.8
785.152	660.6
785.563	642.6
785.974	655.2
786.386	667.2
786.776	660
787.188	663.8
787.599	646.8
788.011	670
788.423	662.8
788.835	653.4
789.247	647.2
789.659	661
790.071	652.6
790.483	714.8
790.874	659
791.286	675.6
791.699	663.4
792.111	654.6
792.524	664.4
792.937	659.6
793.349	656.8
793.741	653.4
794.154	657.6
794.567	683.6
794.98	660.8
795.393	646
795.785	684.4
796.198	657
796.612	672.2
797.026	657.8
797.439	641.4
797.831	662
798.245	658.4
798.659	650.4
799.073	664.2
799.487	654.8
799.88	664.6
800.294	658
800.708	662.6
801.123	665.2
801.516	683.2
801.93	656.8
802.345	645.4
802.76	669
803.153	677.6
803.568	667.4
803.983	674
804.377	659.2
804.792	643.8
805.207	653.4
805.601	669.2
806.016	703
806.432	656
806.826	692.8
807.242	673.6
807.658	670
808.052	652
808.468	652
808.884	652.8
809.279	667.2
809.695	670.4
810.111	689.2
810.506	670.6
810.922	684
811.339	655.6
811.734	665.2
812.151	656.8
812.546	651
812.963	659.4
813.38	671.6
813.776	672.6
814.193	695.2
814.589	655
815.006	659.8
815.402	653
815.82	656.6
816.237	657
816.633	663.2
817.051	653.4
817.448	664.4
817.866	653
818.262	680.4
818.68	664.6
819.077	657.6
819.495	658.4
819.892	710.2
820.311	664
820.708	653.6
821.127	661.4
821.524	673.2
821.943	667.8
822.34	683
822.759	665.6
823.157	658.4
823.576	680.8
823.974	671.4
824.393	737
824.791	658
825.189	651.6
825.609	654.2
826.007	661.2
826.427	645.8
826.826	664
827.246	666.8
827.644	646.8
828.043	673
828.463	651.8
828.862	669.8
829.261	668.4
829.682	647.8
830.081	671.4
830.502	650.6
830.901	666.4
831.301	657.8
831.722	656.8
832.121	655.6
832.521	654
832.943	661
833.342	665.2
833.742	659.8
834.164	660.2
834.564	645.2
834.965	662.6
835.386	656.4
835.787	659.8
836.188	658.6
836.588	668.6
837.01	662.2
837.411	651
837.812	660.4
838.213	657.8
838.636	663.8
839.037	737.2
839.438	664
839.84	666.8
840.263	665.2
840.664	666.8
841.066	650.2
841.468	655.2
841.891	653
842.293	671.2
842.695	657.4
843.098	665.4
843.5	652.6
843.902	657.6
844.326	662.2
844.729	659.6
845.131	672.4
845.534	660
845.937	679.6
846.34	667.6
846.764	650.2
847.167	661.2
847.571	648.8
847.974	660.4
848.377	660.2
848.781	717
849.184	671.6
849.588	667
849.992	658
850.396	663
850.821	682.4
851.225	665.2
851.63	666.2
852.034	679.2
852.438	661.4
852.843	793.6
853.247	654.2
853.652	658.6
854.057	680.8
854.462	671.6
854.867	664.8
855.272	689.8
855.677	665.6
