#lambda/nm	C1
208.295	546.2
208.67	497.8
209.045	465
209.419	453.6
209.794	681.2
210.169	671.2
210.544	813.2
210.919	702.4
211.295	675.2
211.67	691.4
212.045	688.6
212.421	686.8
212.796	732.2
213.172	681.8
213.547	684.8
213.923	680.2
214.299	680.6
214.675	693
215.051	691.2
215.427	701.8
215.803	705.2
216.179	693.6
216.555	683
216.932	699.2
217.308	694.8
217.684	690
218.061	693.6
218.438	689.4
218.814	685.6
219.191	699.6
219.568	673.8
219.945	683.4
220.322	686.2
220.699	699.6
221.076	691.2
221.453	690.4
221.83	681.8
222.208	691.2
222.585	687.6
222.962	691.2
223.34	692.2
223.717	694
224.095	687.2
224.473	691.2
224.851	688
225.229	678.2
225.607	709.6
225.985	670.2
226.363	696.2
226.741	688.4
227.119	688.6
227.497	707.4
227.876	671.4
228.254	696.6
228.633	688.4
229.011	692.8
229.39	698.2
229.769	690.4
230.148	698.2
230.527	706.6
230.905	689.4
231.284	697.6
231.664	687
232.043	705.4
232.422	704.4
232.801	696.8
233.181	695
233.56	689.4
233.94	695.4
234.319	679
234.699	693
235.079	741
235.458	732.4
235.838	707.8
236.218	685.6
236.598	688.6
236.978	683.2
237.358	682
237.738	681.6
238.119	695.2
238.499	677.2
238.88	690
239.26	706
239.641	674.6
240.021	685.2
240.402	694.8
240.783	685.8
241.163	684.8
241.544	688.2
241.925	691.2
242.306	707
242.687	691.2
243.069	687.6
243.45	695.6
243.831	698.4
244.212	687.4
244.594	737.4
244.975	705.6
245.357	706
245.739	690
246.12	696.6
246.502	711.2
246.884	682.2
247.266	698.2
247.648	695.8
248.03	727
248.412	701.8
248.794	706.6
249.176	684.2
249.559	702
249.941	682.6
250.323	686.8
250.706	679.6
251.089	694.2
251.471	687
251.854	690.6
252.237	689
252.62	692
253.002	681.8
253.385	695.2
253.769	705.8
254.152	690.2
254.535	695.6
254.918	676
255.301	686
255.685	687
256.068	682.6
256.452	731.4
256.835	704.8
257.219	692.6
257.603	708.4
257.986	687.4
258.37	701
258.754	680.6
259.138	691
259.522	700
259.906	684
260.29	698.6
260.675	685.8
261.059	692.2
261.443	685.8
261.828	701.4
262.212	703.2
262.597	674
262.981	694.8
263.366	703.8
263.751	687.6
264.136	687.8
264.521	683.4
264.906	678.4
265.291	696.8
265.676	688.6
266.061	701.4
266.446	711.2
266.831	692.2
267.217	719
267.602	698.6
267.987	683.8
268.373	695
268.759	705
269.144	694.4
269.53	693.4
269.916	690.4
270.302	686
270.688	698.4
271.074	692.2
271.46	709.6
271.846	729.2
272.232	700.4
272.618	690.4
273.004	694
273.391	699.6
273.777	712.2
274.164	704
274.55	705
274.937	696
275.324	690
275.71	695.2
276.097	706.4
276.484	681.6
276.871	685.8
277.258	693.6
277.645	681
278.032	694.6
278.419	689.2
278.807	689.8
279.194	673.6
279.581	686.4
279.969	702.8
280.356	703.2
280.744	687.2
281.131	716
281.519	702.4
281.907	692.2
282.295	692.8
282.682	705.4
283.07	694.6
283.458	699.4
283.846	710.8
284.235	701
284.623	699.6
285.011	683.8
285.399	692.8
285.788	693.6
286.176	675
286.565	707.2
286.953	696.6
287.342	694.4
287.731	681.2
288.119	681.6
288.508	688
288.897	697
289.286	674.8
289.675	689.2
290.064	708.6
290.453	688.8
290.821	686.6
291.21	710.8
291.599	687.6
291.989	686
292.378	701
292.768	714.2
293.157	700.4
293.547	697.6
293.936	686.4
294.326	682
294.716	697
295.106	680.6
295.496	705.8
295.886	709.2
296.276	693.6
296.666	689.6
297.056	679.2
297.446	677.6
297.836	716.6
298.227	686.6
298.617	697.2
299.008	704.4
299.398	697.4
299.789	690.4
300.179	704.6
300.57	709.4
300.961	692
301.352	699.4
301.742	711.6
302.133	692
302.524	688.6
302.915	700.6
303.307	686.2
303.698	698.2
304.089	709
304.48	692
304.872	694.6
305.263	699.4
305.655	685.2
306.046	704.4
306.438	700.8
306.829	692
307.221	719.6
307.613	700
308.005	694.8
308.397	711
308.789	732
309.181	719.6
309.573	715.6
309.965	717.6
310.357	699
310.749	710.8
311.142	688.4
311.534	690.8
311.926	707.4
312.319	694
312.711	697.4
313.104	708.8
313.497	688.8
313.889	740.6
314.282	716.4
314.675	716.4
315.068	692.8
315.461	709
315.854	735
316.247	695
316.64	696.6
317.033	705.6
317.405	697.6
317.798	687.2
318.192	692.4
318.585	693
318.979	697
319.372	680.2
319.766	692.4
320.16	695.4
320.553	699.4
320.947	718.8
321.341	690.4
321.735	696.4
322.129	679
322.523	725
322.917	686
323.311	712.6
323.705	696.8
324.099	703.2
324.494	705.8
324.888	709
325.282	699
325.677	711.4
326.071	698.6
326.466	704.2
326.861	704.8
327.255	716.4
327.65	704.8
328.045	725
328.44	703.2
328.835	699.6
329.23	683.6
329.625	724.6
330.02	690.4
330.415	725
330.81	693
331.206	697.6
331.601	689.4
331.996	705.6
332.37	719.4
332.766	684.2
333.161	727.2
333.557	698
333.953	693.2
334.348	1127.2
334.744	700.4
335.14	693.2
335.536	686.2
335.932	717.4
336.328	701.2
336.724	709.6
337.12	692.4
337.516	707.4
337.913	693
338.309	704.4
338.705	691.6
339.102	707
339.498	692
339.895	708.6
340.291	688.4
340.688	705.6
341.085	684.6
341.481	697.6
341.878	690
342.275	719.8
342.672	682.8
343.069	681.4
343.466	681.2
343.842	706
344.239	680.8
344.636	690.4
345.033	680.6
345.431	694
345.828	699.2
346.225	685.8
346.623	735
347.02	701.8
347.418	700.4
347.816	705.8
348.213	688.4
348.611	706.8
349.009	687.8
349.407	709.6
349.805	677.8
350.203	679.8
350.601	707.8
350.999	684.8
351.397	765.4
351.795	696.6
352.193	707.8
352.57	705.6
352.969	705.4
353.367	687
353.766	682.2
354.164	682.8
354.563	694.6
354.961	693.6
355.36	682.6
355.759	691.2
356.158	673
356.557	678.2
356.956	678.2
357.355	675.4
357.754	700.8
358.153	690.8
358.552	720.6
358.951	685.4
359.35	690.6
359.75	692.6
360.149	669.8
360.527	663.8
360.926	683.2
361.326	684.6
361.726	686.2
362.125	674
362.525	689.2
362.925	683.2
363.325	692.8
363.724	684.6
364.124	677.8
364.524	682.2
364.924	686.2
365.324	693
365.725	672.8
366.125	700.8
366.525	686.4
366.904	675.6
367.304	667.4
367.705	708.8
368.105	705.4
368.506	691.8
368.906	689
369.307	680.6
369.708	696
370.108	679.2
370.509	702.2
370.91	674.4
371.311	687.4
371.712	687.4
372.113	689.8
372.514	674.4
372.894	684
373.295	672.2
373.696	707.4
374.097	704.2
374.499	725
374.9	691.8
375.301	684.8
375.703	681.8
376.105	672.4
376.506	697
376.908	687.4
377.309	699
377.711	691
378.113	683
378.493	686.8
378.895	684.6
379.297	688
379.699	672.4
380.102	693.2
380.504	680.2
380.906	672.2
381.308	708.8
381.71	679
382.113	693
382.515	684.8
382.918	685.4
383.299	675.4
383.701	694.2
384.104	684.8
384.507	662.8
384.909	679.4
385.312	671.8
385.715	679.4
386.118	686.2
386.521	669.8
386.924	695
387.327	675.8
387.709	666
388.112	665.4
388.515	680.4
388.918	689.2
389.322	690.4
389.725	682
390.129	712.6
390.532	693.4
390.936	678
391.339	679.8
391.743	695
392.125	681.6
392.529	692.8
392.933	695.2
393.337	686.6
393.74	680.6
394.144	683.4
394.548	676
394.953	683.4
395.357	695.2
395.761	671.8
396.144	684.4
396.548	689.2
396.952	687
397.357	690.2
397.761	692.2
398.166	673.8
398.57	686.2
398.975	675.8
399.379	690.4
399.763	740.6
400.168	691.6
400.572	685.2
400.977	685.8
401.382	709
401.787	693
402.192	708
402.597	704.8
403.002	672.4
403.386	700
403.791	705
404.197	681.8
404.602	687.4
405.007	688.2
405.413	687
405.818	691.4
406.224	681
406.608	685
407.014	677
407.42	701.4
407.825	687.4
408.231	696.6
408.637	680.2
409.043	704.8
409.449	691.4
409.834	675
410.24	691.2
410.646	707
411.052	700.2
411.458	687.4
411.865	689.2
412.271	702.8
412.677	682.4
413.062	692.8
413.469	677
413.875	723.8
414.282	709.4
414.689	688.8
415.095	697.6
415.502	685.2
415.888	693.8
416.294	663.8
416.701	727.2
417.108	677.8
417.515	701
417.923	687.8
418.33	711.8
418.715	699.6
419.123	689.8
419.53	684
419.937	689.6
420.345	701.6
420.752	680.8
421.16	699.4
421.546	680
421.953	693
422.361	673
422.769	682.4
423.177	682.8
423.585	715.4
423.992	714.4
424.379	707.4
424.787	696.6
425.195	712.2
425.603	688.8
426.011	701.8
426.419	699.4
426.806	691.4
427.214	696
427.623	695.6
428.031	701.2
428.44	695.6
428.848	697.8
429.235	707.8
429.644	700.4
430.053	692.6
430.461	713.6
430.87	716.2
431.279	702.4
431.666	691.2
432.075	691.8
432.484	693
432.893	684.6
433.302	715
433.711	738
434.099	695.2
434.508	689.2
434.918	670.6
435.327	702.6
435.737	690.4
436.125	690.2
436.534	692
436.944	697.8
437.353	696
437.763	714.4
438.173	681.4
438.561	698
438.971	671.2
439.381	692.4
439.791	696.2
440.201	671.8
440.589	697
440.999	704
441.409	693
441.819	676.6
442.23	716
442.619	697.6
443.029	699.2
443.439	693.8
443.85	709.2
444.26	711.8
444.649	707.6
445.06	698.6
445.471	690.8
445.881	698.6
446.292	712
446.682	722.6
447.092	675.8
447.503	758.6
447.914	694.4
448.325	696.8
448.715	699.6
449.126	686.4
449.537	692.8
449.948	698
450.338	702
450.75	703.8
451.161	698.6
451.572	718.8
451.984	690.8
452.374	682.2
452.786	697.4
453.197	709
453.609	708.8
453.999	683.8
454.411	690.4
454.823	714.2
455.235	702.2
455.647	702.4
456.037	699
456.449	686.4
456.862	697.6
457.274	702.6
457.665	695
458.077	714
458.489	737.8
458.902	695.2
459.293	699.2
459.705	702.2
460.118	694.2
460.53	700.2
460.921	696.8
461.334	700.6
461.747	696.8
462.16	703.6
462.551	720.8
462.964	707.4
463.377	690.8
463.79	695.2
464.182	713.2
464.595	696.8
465.008	708
465.421	709.4
465.813	704.4
466.226	706.4
466.64	697.2
467.053	751
467.445	708.4
467.859	727.6
468.272	713.2
468.686	709.4
469.078	700.2
469.492	691
469.906	712.2
470.298	711
470.712	694.6
471.126	774.6
471.54	687.8
471.933	707
472.347	707.4
472.761	701.2
473.175	704.8
473.568	705.8
473.982	681.4
474.397	705.6
474.79	707.2
475.204	716.6
475.619	709.2
476.033	712.4
476.426	697.2
476.841	694.4
477.256	714
477.649	694.8
478.064	693.6
478.479	694.8
478.872	686.6
479.287	682.2
479.702	690
480.118	692
480.511	695.2
480.927	704
481.342	696.8
481.736	704.8
482.151	704.4
482.566	716
482.96	710.8
483.376	712.6
483.792	698.4
484.186	712.4
484.602	694.8
485.017	706.6
485.412	701.8
485.827	708.2
486.243	705
486.638	724.6
487.054	706.2
487.47	727.4
487.865	689.2
488.281	686
488.697	691.6
489.092	700.6
489.508	692
489.925	707
490.32	683.6
490.736	701.2
491.153	702.6
491.548	704.2
491.964	713.2
492.381	683.4
492.776	708
493.193	704
493.61	706.4
494.006	696
494.422	714.8
494.84	686.8
495.235	719.6
495.652	698
496.069	703.2
496.465	678
496.883	693.6
497.3	717.2
497.696	693
498.113	705.2
498.509	675.2
498.927	672.6
499.344	686.4
499.741	685.2
500.158	689.6
500.576	704.6
500.973	691
501.39	684.6
501.787	688.2
502.205	698.8
502.623	688
503.02	681.2
503.438	690
503.856	690.4
504.253	695.8
504.671	697.4
505.068	686.2
505.486	678.2
505.905	716.4
506.302	696.6
506.72	706
507.118	686
507.536	697.2
507.955	689.2
508.352	699
508.771	697.8
509.169	698
509.587	685.2
510.006	690.6
510.404	674.8
510.823	680
511.221	688.6
511.64	688.8
512.038	699.6
512.457	695
512.877	685.2
513.275	683.2
513.694	684
514.092	689.6
514.512	694.4
514.91	695.6
515.33	690
515.749	677.6
516.148	697
516.568	687.8
516.966	681.4
517.386	686.6
517.785	687.2
518.205	680
518.603	685.6
519.024	682.6
519.444	688.4
519.843	695.8
520.263	699
520.662	692.2
521.082	683.4
521.481	684
521.902	688
522.301	681.8
522.722	692.6
523.121	693.2
523.542	682.8
523.963	684.8
524.362	695.8
524.783	681.8
525.183	685.6
525.604	691.2
526.003	683.4
526.425	671.8
526.824	695
527.246	699.8
527.646	687.8
528.067	682
528.467	679.2
528.888	691.6
529.289	675.6
529.71	677.6
530.11	679.2
530.532	677.2
530.932	676.6
531.354	671.6
531.755	721.4
532.176	691.6
532.577	688.2
532.999	676.2
533.4	675
533.822	699
534.223	680.8
534.645	683.8
535.046	680.6
535.468	680.6
535.869	693.6
536.292	676.8
536.693	718.8
537.115	681.2
537.516	671.8
537.939	669.6
538.34	706.2
538.742	689.8
539.165	680.8
539.566	671.4
539.989	675.2
540.391	682.4
540.814	686
541.216	678.6
541.639	682
542.041	689.2
542.464	675.6
542.866	675.6
543.268	666.8
543.691	685.2
544.093	692.4
544.517	697.6
544.919	669.8
545.343	701.2
545.745	669.4
546.147	683.2
546.571	676.4
546.974	672.4
547.398	682.6
547.8	702.2
548.224	678.4
548.627	679.2
549.03	684.8
549.454	674.4
549.857	667
550.281	672.2
550.684	676.4
551.087	686.6
551.512	682
551.915	681.4
552.34	681.2
552.743	669.8
553.146	680.8
553.571	679.6
553.975	697.2
554.399	673.2
554.803	741.2
555.207	667.2
555.632	665.8
556.036	686.2
556.461	669.2
556.865	678.8
557.268	676
557.694	673.6
558.098	681.8
558.502	677.2
558.927	678
559.332	674.2
559.736	674.6
560.162	693.2
560.566	675.2
560.992	682.4
561.396	686.4
561.801	674.6
562.227	675.4
562.631	671.4
563.036	683.8
563.462	684.6
563.867	669.2
564.272	658.6
564.698	684.2
565.103	658.2
565.508	697
565.935	672
566.34	667.4
566.745	689.6
567.172	666.4
567.577	694.4
567.982	683.2
568.409	675.2
568.815	660.6
569.22	675.8
569.626	687.6
570.053	653
570.459	671.6
570.865	685.8
571.292	682.6
571.698	688.6
572.104	660
572.531	665.8
572.937	684.2
573.343	677.2
573.75	674.6
574.177	681.6
574.583	680.8
574.99	677.6
575.396	680.2
575.824	664.4
576.231	674.4
576.637	675.4
577.065	698.6
577.472	672.8
577.879	679
578.286	685
578.714	665.8
579.121	671.6
579.528	671
579.935	686
580.364	668.6
580.771	659.6
581.178	665.2
581.585	677
582.014	670.8
582.421	662.8
582.829	665.8
583.236	681.6
583.644	661.4
584.073	673.4
584.481	674.2
584.889	661.2
585.296	679
585.726	675.6
586.134	666.8
586.542	662.2
586.95	691.6
587.358	667.6
587.787	666.4
588.196	661
588.604	667
589.012	674.4
589.421	663
589.851	649.6
590.259	669.4
590.668	669.6
591.076	716.6
591.485	654.2
591.894	668.8
592.324	691
592.733	686.2
593.142	656.8
593.551	659.6
593.96	669.4
594.369	656.6
594.8	653.6
595.209	668.2
595.618	656
596.028	670
596.437	658
596.847	670
597.256	673.8
597.687	681
598.097	680.6
598.507	660
598.917	689
599.327	679
599.736	676.6
600.146	678
600.556	672.8
600.988	690.4
601.398	663.4
601.808	679.2
602.219	663.8
602.629	665.4
603.039	674
603.45	692.4
603.86	673
604.271	675.6
604.703	666.8
605.114	668
605.525	671
605.935	671.2
606.346	698.6
606.757	679.8
607.168	660.8
607.579	665.6
607.99	671.8
608.402	669.6
608.813	670.4
609.224	663.8
609.636	662
610.047	668.2
610.48	669.6
610.892	683.4
611.303	690.2
611.715	669
612.127	659.2
612.539	663.6
612.95	670.8
613.362	659.4
613.774	662.2
614.186	666.4
614.599	660.2
615.011	680.6
615.423	666.4
615.835	663
616.248	655.6
616.66	677.8
617.073	654
617.485	668.2
617.898	681
618.311	671.4
618.723	674.2
619.136	700.6
619.549	684.4
619.962	685.6
620.375	661.6
620.788	674.4
621.201	659.6
621.614	680.2
622.028	664
622.441	677.8
622.854	690.4
623.268	664.2
623.681	667.6
624.095	670.2
624.509	684
624.922	678.6
625.336	656.8
625.728	670.4
626.142	684.6
626.556	690.2
626.97	670.6
627.384	656.8
627.799	657.4
628.213	685.4
628.627	675.2
629.041	662.8
629.456	664.6
629.87	662
630.285	670
630.699	685.4
631.093	673.6
631.507	675
631.922	671.8
632.337	680.4
632.752	660.4
633.167	664
633.582	670
633.997	665.4
634.412	663.6
634.806	661.2
635.221	650.6
635.637	679.2
636.052	659.2
636.468	678
636.883	693.6
637.299	668.6
637.715	653.6
638.109	667.2
638.525	655
638.941	685.4
639.357	671.8
639.773	684
640.189	663
640.584	653.6
641	664.8
641.416	645.8
641.832	658
642.249	672
642.665	664.4
643.06	672.8
643.477	679.2
643.894	649
644.31	667
644.727	672.4
645.123	672
645.54	650.6
645.957	672.2
646.374	691
646.77	669.2
647.187	706
647.604	670.6
648.021	656.2
648.439	654.8
648.835	674
649.252	665
649.67	662.6
650.088	665.6
650.484	666.2
650.902	672.8
651.32	682.6
651.738	651.8
652.134	671.8
652.552	695.8
652.971	675.4
653.389	670
653.786	682
654.204	693
654.622	655.4
655.019	667.8
655.438	673.4
655.857	667
656.275	680.4
656.673	660.8
657.091	759
657.51	664.4
657.908	675.8
658.327	684.8
658.746	658.2
659.144	667.4
659.563	689.6
659.982	671.6
660.38	651.8
660.8	667
661.219	675.6
661.617	672.4
662.037	667
662.457	683.8
662.855	650.2
663.275	708.8
663.695	667.6
664.094	664.2
664.514	669
664.934	659
665.333	678.8
665.753	665.6
666.152	662.2
666.572	658.6
666.993	681.6
667.392	662.2
667.812	667.2
668.212	655.8
668.632	680.2
669.053	655.4
669.453	668.4
669.874	669.6
670.273	664.8
670.694	655.8
671.116	670.2
671.515	672.6
671.937	660.4
672.337	660.6
672.758	663
673.158	678.4
673.58	649.4
673.98	667.2
674.402	681.8
674.824	668.4
675.224	663.2
675.646	653.4
676.047	660.4
676.469	664.6
676.869	669.6
677.292	670.4
677.693	668
678.115	665
678.516	674.8
678.939	672.6
679.34	668.2
679.762	677.8
680.164	668.2
680.586	659.4
680.988	669.6
681.411	711.2
681.812	657.8
682.236	662.2
682.637	657.6
683.061	656.8
683.462	661.6
683.864	661.2
684.288	677
684.69	658.4
685.114	681
685.516	676
685.94	657.2
686.342	675.4
686.766	665
687.168	661.8
687.571	688.2
687.995	664
688.398	654.4
688.822	671
689.225	684.2
689.628	685.4
690.052	668.8
690.456	665.8
690.88	665.6
691.284	657.8
691.687	668.6
692.112	651
692.515	653.4
692.919	660
693.344	661.6
693.747	657.4
694.173	653.4
694.577	667.8
694.98	671.8
695.406	665.4
695.81	672.2
696.214	671.8
696.64	668.2
697.044	669.2
697.448	668.8
697.874	673.8
698.279	661.6
698.684	651.4
699.11	656.2
699.514	665.8
699.919	663.8
700.324	650
700.75	673.4
701.156	670.2
701.561	677.8
701.987	671.8
702.393	677.4
702.798	678.6
703.203	663
703.63	659
704.036	668.6
704.442	665.8
704.847	653.4
705.274	657
705.68	673.8
706.086	676.6
706.492	649.6
706.92	658.6
707.326	666.8
707.732	661
708.139	659.8
708.545	659
708.973	666.4
709.38	662.4
709.786	649.6
710.193	678.6
710.6	667.6
711.028	657.6
711.435	656.6
711.842	664.8
712.249	659.4
712.656	667.4
713.064	684.6
713.492	655.4
713.9	660.6
714.307	671.6
714.715	663.6
715.123	669.8
715.53	670.6
715.938	673.2
716.367	668
716.775	664.8
717.184	652.4
717.592	662
718	688
718.408	712
718.816	714
719.225	672.8
719.633	669.4
720.042	653
720.472	665.6
720.881	695.8
721.29	670.8
721.699	660.8
722.108	675.4
722.517	670.8
722.926	660.4
723.335	675.6
723.744	671.6
724.154	662.2
724.563	663.6
724.973	666.4
725.382	673.8
725.792	662.6
726.202	652
726.612	685.4
727.022	662.4
727.432	650
779.813	658
780.223	712
780.634	667.2
781.044	648
781.454	661.4
781.865	682
782.276	651.4
782.686	672.2
783.097	670.8
783.508	653.8
783.919	662.4
784.33	679.4
784.741	671.6
785.152	659.8
785.563	643.8
785.974	659
786.386	673.2
786.776	657
787.188	660.6
787.599	650.4
788.011	674.6
788.423	668.8
788.835	663.6
789.247	647.8
789.659	657
790.071	654.8
790.483	711.8
790.874	650.8
791.286	674
791.699	664.6
792.111	661.4
792.524	664.2
792.937	664.2
793.349	655.2
793.741	651.8
794.154	656.2
794.567	684.6
794.98	653.8
795.393	646.4
795.785	669.4
796.198	659.8
796.612	658.2
797.026	668
797.439	638
797.831	667.6
798.245	641.6
798.659	656
799.073	652.8
799.487	650.8
799.88	663.6
800.294	656.4
800.708	674.4
801.123	664.8
801.516	683.4
801.93	654.8
802.345	642.8
802.76	658.8
803.153	668
803.568	675
803.983	671
804.377	674
804.792	658.8
805.207	647.6
805.601	662.8
806.016	700.8
806.432	650.6
806.826	708.2
807.242	685.8
807.658	669.4
808.052	657.8
808.468	662.6
808.884	650.8
809.279	654.4
809.695	682.2
810.111	691.6
810.506	668.8
810.922	677.2
811.339	663
811.734	678.8
812.151	657.2
812.546	655.4
812.963	648.6
813.38	666.8
813.776	658.4
814.193	687.6
814.589	645.8
815.006	659.8
815.402	656.2
815.82	658
816.237	662.2
816.633	662.2
817.051	649
817.448	667
817.866	648.6
818.262	673
818.68	643.8
819.077	652
819.495	664.8
819.892	704.4
820.311	658
820.708	660.8
821.127	652.8
821.524	670
821.943	663.6
822.34	680.2
822.759	659
823.157	665
823.576	671.6
823.974	665.8
824.393	782.4
824.791	659
825.189	644.6
825.609	649
826.007	667
826.427	644.4
826.826	651
827.246	662.8
827.644	636.2
828.043	667.2
828.463	653.6
828.862	664
829.261	670
829.682	654.8
830.081	663.4
830.502	658.2
830.901	661.2
831.301	645.4
831.722	638
832.121	659.2
832.521	654.2
832.943	663.4
833.342	661
833.742	657.4
834.164	656.4
834.564	647.2
834.965	664.6
835.386	661
835.787	660.4
836.188	665
836.588	673.8
837.01	657.4
837.411	657.4
837.812	670.2
838.213	658.2
838.636	653.6
839.037	731.8
839.438	662
839.84	665.6
840.263	671.4
840.664	663.8
841.066	656.2
841.468	656.4
841.891	652.6
842.293	674.6
842.695	659
843.098	666.2
843.5	654
843.902	665.8
844.326	666.4
844.729	660
845.131	669.4
845.534	663.4
845.937	680.6
846.34	683.4
846.764	653.6
847.167	668.6
847.571	655.4
847.974	650.8
848.377	654.2
848.781	712.6
849.184	668.6
849.588	657.8
849.992	656.2
850.396	668.8
850.821	693.6
851.225	675.6
851.63	657.8
852.034	669
852.438	653.6
852.843	802.4
853.247	648.2
853.652	655.4
854.057	687.2
854.462	662.2
854.867	658
855.272	687.4
855.677	664.8
856.082	648.6
856.487	654.6
856.893	661.6
857.298	664.4
