#lambda/nm	C1
208.295	546.8
208.67	492.6
209.045	460.4
209.419	455
209.794	692.8
210.169	668.8
210.544	809.4
210.919	699.2
211.295	680.6
211.67	695.4
212.045	691.4
212.421	696.4
212.796	734.6
213.172	682
213.547	683
213.923	694.8
214.299	679.8
214.675	699
215.051	688.6
215.427	696.6
215.803	713.4
216.179	694
216.555	684
216.932	692
217.308	687.8
217.684	692.8
218.061	698.2
218.438	689.6
218.814	680.2
219.191	691.6
219.568	684.4
219.945	673.4
220.322	706
220.699	697.4
221.076	704
221.453	699
221.83	687.8
222.208	684.6
222.585	685.8
222.962	692.4
223.34	687.8
223.717	694
224.095	694.2
224.473	690.8
224.851	701.2
225.229	673.2
225.607	706.2
225.985	683
226.363	693.8
226.741	692.6
227.119	690
227.497	698.4
227.876	680.8
228.254	706.8
228.633	702.2
229.011	686
229.39	692
229.769	696.4
230.148	698.2
230.527	716.4
230.905	693.4
231.284	693
231.664	686.8
232.043	708.8
232.422	700.8
232.801	686.6
233.181	690.8
233.56	686.2
233.94	689.2
234.319	676.8
234.699	695.8
235.079	725.4
235.458	724.2
235.838	714
236.218	677.8
236.598	678.4
236.978	680.8
237.358	680.2
237.738	681.2
238.119	692.2
238.499	675
238.88	684.6
239.26	710.6
239.641	674.8
240.021	681.2
240.402	679.6
240.783	685.6
241.163	684.6
241.544	685
241.925	679.2
242.306	713.8
242.687	684.8
243.069	686
243.45	691.6
243.831	683
244.212	678.6
244.594	733.2
244.975	702.2
245.357	697
245.739	689.8
246.12	698.4
246.502	717.2
246.884	695.4
247.266	687.8
247.648	700.2
248.03	720.4
248.412	693.2
248.794	698.8
249.176	685.6
249.559	705.4
249.941	680.2
250.323	679.8
250.706	683.2
251.089	696.2
251.471	695.2
251.854	688.4
252.237	694.8
252.62	689.8
253.002	683
253.385	693
253.769	704.4
254.152	688.2
254.535	703.8
254.918	675.6
255.301	692.8
255.685	691.6
256.068	678.2
256.452	723.6
256.835	701.4
257.219	696
257.603	700
257.986	683.4
258.37	693
258.754	686
259.138	701.6
259.522	701.4
259.906	691.2
260.29	693.2
260.675	690
261.059	698
261.443	669.4
261.828	702.2
262.212	698.4
262.597	676.6
262.981	684
263.366	699
263.751	697
264.136	687.4
264.521	685.6
264.906	686.4
265.291	700.6
265.676	692
266.061	696.8
266.446	711.8
266.831	691.2
267.217	717.8
267.602	701.4
267.987	700.8
268.373	691.6
268.759	708
269.144	705
269.53	692.6
269.916	689
270.302	684.4
270.688	700.4
271.074	699.4
271.46	699.4
271.846	729
272.232	696
272.618	683.2
273.004	688
273.391	701.2
273.777	713.8
274.164	693.2
274.55	703
274.937	688.4
275.324	689.4
275.71	698.4
276.097	701.6
276.484	682.6
276.871	684
277.258	694.2
277.645	682.6
278.032	691.6
278.419	688.8
278.807	701.6
279.194	671
279.581	679.4
279.969	698.6
280.356	687.2
280.744	690.6
281.131	712.4
281.519	701.2
281.907	681.6
282.295	682
282.682	702
283.07	694.6
283.458	700.6
283.846	703.6
284.235	704.4
284.623	701.2
285.011	692.4
285.399	702.8
285.788	689.2
286.176	681.4
286.565	713.2
286.953	692.6
287.342	685.4
287.731	688.4
288.119	681.2
288.508	680.4
288.897	697.2
289.286	673.4
289.675	695.2
290.064	697.6
290.453	689.2
290.821	687.4
291.21	707.4
291.599	685
291.989	697.4
292.378	714.6
292.768	706.4
293.157	700.2
293.547	707.8
293.936	695.2
294.326	685.2
294.716	700
295.106	689
295.496	702.4
295.886	705
296.276	701.2
296.666	685.2
297.056	686.6
297.446	671
297.836	708.8
298.227	691
298.617	693.6
299.008	716.6
299.398	693.6
299.789	692.4
300.179	707.4
300.57	713
300.961	687.8
301.352	681.8
301.742	704.6
302.133	689
302.524	686
302.915	694.2
303.307	680.2
303.698	697.6
304.089	702.4
304.48	692
304.872	703.4
305.263	691.2
305.655	683.4
306.046	695.8
306.438	706.4
306.829	685.8
307.221	711.2
307.613	698.8
308.005	704
308.397	704
308.789	723.6
309.181	720.4
309.573	707.4
309.965	710.4
310.357	692.4
310.749	704.8
311.142	681.6
311.534	694.2
311.926	710.4
312.319	688.4
312.711	685.4
313.104	715.6
313.497	691.6
313.889	736.2
314.282	714.2
314.675	718.8
315.068	702.6
315.461	702.8
315.854	738
316.247	700
316.64	696.6
317.033	693.8
317.405	705
317.798	697.4
318.192	705
318.585	686.8
318.979	702.2
319.372	695
319.766	687.8
320.16	710.4
320.553	710.2
320.947	714
321.341	690.6
321.735	693.8
322.129	678.6
322.523	721
322.917	689.8
323.311	716.6
323.705	701.4
324.099	702.8
324.494	709.8
324.888	716.8
325.282	692
325.677	696
326.071	700.8
326.466	707.4
326.861	709.2
327.255	708
327.65	702.4
328.045	720.6
328.44	695.6
328.835	686.8
329.23	692
329.625	722.4
330.02	680.8
330.415	720.8
330.81	697.4
331.206	693.8
331.601	686.4
331.996	704.8
332.37	727
332.766	686.4
333.161	720.8
333.557	688
333.953	692.4
334.348	1030.8
334.744	695
335.14	690.2
335.536	695.8
335.932	707.4
336.328	697.4
336.724	702
337.12	697.2
337.516	703
337.913	691.6
338.309	711.4
338.705	693
339.102	695.6
339.498	687
339.895	712.2
340.291	676
340.688	712.2
341.085	680.4
341.481	697.2
341.878	700
342.275	713.8
342.672	694.4
343.069	686.4
343.466	674.8
343.842	698.4
344.239	677.2
344.636	688.4
345.033	676.2
345.431	677.6
345.828	688.2
346.225	679.4
346.623	727
347.02	699.2
347.418	697.8
347.816	707.6
348.213	674.2
348.611	695.6
349.009	691.2
349.407	709.8
349.805	678.6
350.203	675.4
350.601	706.6
350.999	688.6
351.397	789.2
351.795	695.2
352.193	704.2
352.57	698.4
352.969	704.2
353.367	691.8
353.766	678.4
354.164	690.4
354.563	701.2
354.961	691
355.36	685.6
355.759	693.6
356.158	681.8
356.557	680.8
356.956	683
357.355	676.4
357.754	696.4
358.153	694.8
358.552	714.6
358.951	687.6
359.35	696.4
359.75	688.8
360.149	680
360.527	681
360.926	683.8
361.326	688.8
361.726	685
362.125	686.8
362.525	699
362.925	694.2
363.325	692.2
363.724	689.4
364.124	681.2
364.524	684.6
364.924	688.4
365.324	714.6
365.725	674
366.125	699.8
366.525	694.2
366.904	691.4
367.304	668.2
367.705	713.2
368.105	698.4
368.506	683.8
368.906	690.8
369.307	673.2
369.708	687.4
370.108	676
370.509	703.4
370.91	681.4
371.311	689.8
371.712	694
372.113	684.6
372.514	670
372.894	681
373.295	680.4
373.696	697.2
374.097	697.2
374.499	726
374.9	696.2
375.301	674.6
375.703	680.2
376.105	672
376.506	690.8
376.908	687.2
377.309	683.8
377.711	689.8
378.113	681
378.493	685
378.895	683.2
379.297	701.6
379.699	675.2
380.102	692.2
380.504	689.6
380.906	686
381.308	708
381.71	679
382.113	697
382.515	682.8
382.918	685
383.299	676
383.701	703.8
384.104	687.4
384.507	669.4
384.909	680.8
385.312	665.4
385.715	668.8
386.118	685.8
386.521	669.8
386.924	698.4
387.327	679.6
387.709	671.2
388.112	669.8
388.515	684.6
388.918	687.6
389.322	694.4
389.725	689.6
390.129	714.8
390.532	689.6
390.936	688.2
391.339	670.2
391.743	692
392.125	674.2
392.529	695.4
392.933	700
393.337	681.8
393.74	680.4
394.144	687.6
394.548	672.4
394.953	681
395.357	689.4
395.761	687
396.144	693.6
396.548	683
396.952	683
397.357	684.4
397.761	676.8
398.166	681
398.57	689.2
398.975	676.8
399.379	687
399.763	738.2
400.168	687
400.572	681.6
400.977	681.4
401.382	702.8
401.787	692.8
402.192	708.6
402.597	701.8
403.002	676.4
403.386	697.8
403.791	712
404.197	681.8
404.602	676
405.007	684.2
405.413	693.4
405.818	688.2
406.224	680.4
406.608	678.8
407.014	672.2
407.42	701.8
407.825	680.8
408.231	705
408.637	688.4
409.043	686.6
409.449	685.8
409.834	686.6
410.24	685.8
410.646	693
411.052	700.6
411.458	686.6
411.865	701.6
412.271	706.6
412.677	682.8
413.062	696
413.469	663.8
413.875	708.8
414.282	702
414.689	691.6
415.095	695.2
415.502	683
415.888	678.6
416.294	661
416.701	732.6
417.108	680.4
417.515	689.4
417.923	682.6
418.33	709.8
418.715	693.6
419.123	685
419.53	677.2
419.937	687.4
420.345	702.8
420.752	684.4
421.16	701
421.546	690
421.953	695.2
422.361	677
422.769	677.6
423.177	679.8
423.585	718.8
423.992	718.8
424.379	705
424.787	701.4
425.195	711.6
425.603	690.6
426.011	713.2
426.419	709.6
426.806	694.6
427.214	693.6
427.623	695.4
428.031	705.6
428.44	694.4
428.848	709.2
429.235	710.6
429.644	695.2
430.053	695.8
430.461	707
430.87	724.6
431.279	709.8
431.666	683.2
432.075	691.8
432.484	699.2
432.893	685.2
433.302	719.8
433.711	748.4
434.099	699.2
434.508	685.8
434.918	677.6
435.327	707
435.737	693
436.125	693.6
436.534	682.4
436.944	693.4
437.353	699.6
437.763	721.6
438.173	676.8
438.561	710.2
438.971	674
439.381	698.2
439.791	695.2
440.201	664.8
440.589	697.8
440.999	702.2
441.409	692
441.819	685.6
442.23	709.8
442.619	709
443.029	693.6
443.439	703
443.85	702
444.26	711.2
444.649	705.4
445.06	693.2
445.471	691.6
445.881	705
446.292	708.6
446.682	717.6
447.092	688
447.503	757.8
447.914	695.6
448.325	698.4
448.715	700
449.126	692.8
449.537	693.6
449.948	701.4
450.338	697
450.75	716.4
451.161	698.2
451.572	711
451.984	690.2
452.374	689
452.786	692.4
453.197	703
453.609	710.6
453.999	683
454.411	682.2
454.823	716.4
455.235	708.4
455.647	695.8
456.037	706.4
456.449	678.2
456.862	697.6
457.274	702.6
457.665	697
458.077	713.2
458.489	737.6
458.902	697
459.293	698.8
459.705	706.8
460.118	698.2
460.53	711.6
460.921	703.2
461.334	709.2
461.747	709.4
462.16	722.8
462.551	722.2
462.964	721.2
463.377	684.8
463.79	701.6
464.182	715.4
464.595	693.6
465.008	715
465.421	702.4
465.813	707.4
466.226	708.8
466.64	701
467.053	750
467.445	713.8
467.859	722
468.272	711
468.686	716.4
469.078	706
469.492	686
469.906	704
470.298	713.6
470.712	698
471.126	768.8
471.54	690.2
471.933	698.2
472.347	703.2
472.761	703.2
473.175	703.8
473.568	696.4
473.982	691
474.397	701.4
474.79	704.8
475.204	710.2
475.619	702.6
476.033	714.4
476.426	706.4
476.841	696.2
477.256	729.6
477.649	700.8
478.064	687.4
478.479	691.2
478.872	704
479.287	691.6
479.702	693
480.118	704.6
480.511	694.4
480.927	696
481.342	692.4
481.736	701.8
482.151	698.4
482.566	715.6
482.96	703.4
483.376	706.8
483.792	697.6
484.186	709
484.602	690.6
485.017	696.4
485.412	697.8
485.827	703.2
486.243	699.2
486.638	736.6
487.054	710.8
487.47	724.4
487.865	701.8
488.281	689.8
488.697	687.6
489.092	693
489.508	690
489.925	712.6
490.32	685.2
490.736	695.6
491.153	701
491.548	696.6
491.964	706.2
492.381	688.4
492.776	702
493.193	702.8
493.61	713.4
494.006	703.8
494.422	713.4
494.84	693
495.235	706
495.652	701
496.069	702.4
496.465	685.4
496.883	706.6
497.3	738
497.696	691.2
498.113	703.2
498.509	682.2
498.927	680.2
499.344	693
499.741	683.4
500.158	700.8
500.576	705
500.973	699
501.39	684.8
501.787	691.6
502.205	694.4
502.623	693.6
503.02	693.6
503.438	691
503.856	693
504.253	696.2
504.671	688.8
505.068	694
505.486	689.6
505.905	718
506.302	692.4
506.72	710.8
507.118	689
507.536	690.4
507.955	700.8
508.352	696.4
508.771	691.4
509.169	695.2
509.587	686
510.006	684.4
510.404	682.8
510.823	684.4
511.221	687
511.64	693.4
512.038	695
512.457	690.4
512.877	687.8
513.275	681.8
513.694	684.2
514.092	687.2
514.512	697
514.91	684
515.33	690.2
515.749	684.8
516.148	684.8
516.568	691.4
516.966	682.4
517.386	679.4
517.785	680
518.205	676
518.603	683.4
519.024	679.2
519.444	686
519.843	697.8
520.263	697.6
520.662	693
521.082	685
521.481	685.2
521.902	688.4
522.301	688.8
522.722	693.8
523.121	689
523.542	674.8
523.963	687.2
524.362	684
524.783	688.8
525.183	686.6
525.604	686.6
526.003	677.6
526.425	676.2
526.824	691.4
527.246	690.8
527.646	691.4
528.067	683.8
528.467	688.8
528.888	689.2
529.289	695.6
529.71	684.6
530.11	680.4
530.532	682.6
530.932	683.6
531.354	678.2
531.755	720
532.176	698.6
532.577	681.8
532.999	682.8
533.4	681
533.822	703.6
534.223	687.2
534.645	685.2
535.046	677
535.468	685
535.869	706
536.292	682.8
536.693	730.2
537.115	691.4
537.516	674.4
537.939	675.6
538.34	702.4
538.742	696.2
539.165	688.8
539.566	684.4
539.989	681.8
540.391	669.8
540.814	681
541.216	682.8
541.639	686.4
542.041	693.6
542.464	678.4
542.866	669.6
543.268	673.6
543.691	680
544.093	690.8
544.517	703.4
544.919	674.2
545.343	707.6
545.745	679.8
546.147	681.8
546.571	673
546.974	671.2
547.398	677.4
547.8	695
548.224	677.8
548.627	668.6
549.03	686.2
549.454	673.8
549.857	657.6
550.281	670.6
550.684	662.4
551.087	678.2
551.512	684.6
551.915	681.2
552.34	671.2
552.743	671
553.146	680.2
553.571	674.8
553.975	698.2
554.399	666.4
554.803	739.8
555.207	667.4
555.632	667.2
556.036	681.4
556.461	667.8
556.865	681.6
557.268	671.8
557.694	676
558.098	681.6
558.502	682.2
558.927	674
559.332	677
559.736	678.2
560.162	672
560.566	670.6
560.992	678.2
561.396	679.6
561.801	674.4
562.227	671.6
562.631	670.4
563.036	676.4
563.462	682.8
563.867	679.8
564.272	661.6
564.698	681
565.103	667.6
565.508	699
565.935	683.6
566.34	668.2
566.745	694
567.172	668.8
567.577	699.8
567.982	692.8
568.409	686.4
568.815	675.6
569.22	675
569.626	699.6
570.053	662.2
570.459	677.4
570.865	683.6
571.292	681.8
571.698	674.4
572.104	658.8
572.531	669
572.937	696.2
573.343	672.8
573.75	671
574.177	670.8
574.583	687.4
574.99	668.8
575.396	679.8
575.824	675.4
576.231	681.4
576.637	670
577.065	704.8
577.472	664.4
577.879	671
578.286	693.6
578.714	668
579.121	673.8
579.528	673.2
579.935	686.4
580.364	675.2
580.771	652.2
581.178	667.4
581.585	682.4
582.014	682
582.421	669.2
582.829	667.6
583.236	682
583.644	659.8
584.073	664.4
584.481	670.6
584.889	671.6
585.296	673.8
585.726	667
586.134	655.8
586.542	660.4
586.95	693.8
587.358	663.6
587.787	675.6
588.196	653.2
588.604	674
589.012	671.8
589.421	665.8
589.851	665.4
590.259	675.6
590.668	661.8
591.076	710.2
591.485	659.6
591.894	669.2
592.324	687.4
592.733	682.6
593.142	651.6
593.551	661.4
593.96	673.6
594.369	654.8
594.8	664.2
595.209	665.8
595.618	653
596.028	664.8
596.437	655
596.847	662.8
597.256	667.6
597.687	671.4
598.097	676.6
598.507	661.4
598.917	677.6
599.327	674
599.736	678.6
600.146	676.2
600.556	670.8
600.988	695.6
601.398	674
601.808	674.8
602.219	661.4
602.629	669.6
603.039	679
603.45	694.6
603.86	671
604.271	693.8
604.703	671
605.114	675.6
605.525	670
605.935	685
606.346	694.4
606.757	681.6
607.168	668
607.579	661.2
607.99	685.6
608.402	673.2
608.813	677.8
609.224	670.8
609.636	657.2
610.047	666.8
610.48	675
610.892	677.8
611.303	675.6
611.715	672.8
612.127	655.6
612.539	663.6
612.95	668.8
613.362	649.8
613.774	660.8
614.186	663
614.599	660
615.011	680
615.423	665.2
615.835	666.4
616.248	655.4
616.66	672.4
617.073	658.8
617.485	666.4
617.898	688.8
618.311	672.6
618.723	668.2
619.136	695.4
619.549	676.4
619.962	685.8
620.375	663
620.788	671.8
621.201	660
621.614	676
622.028	658.4
622.441	676.6
622.854	687.8
623.268	661.8
623.681	680.4
624.095	666.4
624.509	688.2
624.922	673.4
625.336	654.2
625.728	662.8
626.142	678.6
626.556	686.2
626.97	683.6
627.384	671.2
627.799	670.2
628.213	680.2
628.627	665.8
629.041	665.6
629.456	663.4
629.87	678.4
630.285	682.6
630.699	675.6
631.093	671.2
631.507	682.8
631.922	676.4
632.337	685
632.752	663.6
633.167	679.4
633.582	660.2
633.997	665
634.412	663.8
634.806	676.8
635.221	657.6
635.637	684.8
636.052	660.8
636.468	672.8
636.883	687.6
637.299	663.6
637.715	652.6
638.109	669.8
638.525	648.4
638.941	684.2
639.357	669.6
639.773	689.6
640.189	662.6
640.584	672.8
641	670.8
641.416	656.4
641.832	659.6
642.249	670
642.665	669.4
643.06	678.4
643.477	680.6
643.894	649.8
644.31	668.4
644.727	669
645.123	661.6
645.54	660.8
645.957	676.8
646.374	683.8
646.77	671.8
647.187	704.8
647.604	664.2
648.021	656
648.439	662
648.835	672
649.252	672.4
649.67	664.8
650.088	657.8
650.484	673.2
650.902	666.4
651.32	669.8
651.738	664
652.134	665.6
652.552	686.8
652.971	678.2
653.389	671.6
653.786	682.4
654.204	689.2
654.622	651.4
655.019	673.4
655.438	666.2
655.857	669.4
656.275	670.8
656.673	656.2
657.091	744
657.51	656.4
657.908	677.4
658.327	681
658.746	648.4
659.144	666.6
659.563	679.2
659.982	669.4
660.38	655.8
660.8	666.4
661.219	683.8
661.617	672.8
662.037	671.6
662.457	681.8
662.855	648.8
663.275	704.2
663.695	673.2
664.094	660
664.514	669.8
664.934	661.8
665.333	672
665.753	652
666.152	651
666.572	659.8
666.993	690.8
667.392	668.8
667.812	665.6
668.212	663.8
668.632	680.2
669.053	662.8
669.453	664.6
669.874	669.6
670.273	658.4
670.694	656.8
671.116	683.6
671.515	671
671.937	667.6
672.337	661.6
672.758	663.4
673.158	671.4
673.58	656.8
673.98	667.4
674.402	682.4
674.824	664
675.224	656.8
675.646	657.2
676.047	660.4
676.469	667.2
676.869	675
677.292	669.8
677.693	658.4
678.115	663.2
678.516	667.8
678.939	670.6
679.34	662
679.762	679.4
680.164	667.4
680.586	671.8
680.988	667.6
681.411	689.6
681.812	655.2
682.236	655.4
682.637	655.8
683.061	653.2
683.462	668.4
683.864	663.4
684.288	667.2
684.69	656.2
685.114	675.2
685.516	676.4
685.94	661.4
686.342	673.2
686.766	664.4
687.168	665.6
687.571	689.8
687.995	669.8
688.398	648.6
688.822	658.2
689.225	678.2
689.628	681
690.052	662.8
690.456	673.2
690.88	658.8
691.284	667
691.687	662.6
692.112	664.6
692.515	653
692.919	663.6
693.344	664.6
693.747	657.8
694.173	652
694.577	677.4
694.98	657.2
695.406	656.8
695.81	665.4
696.214	670.8
696.64	670.8
697.044	666.2
697.448	676.8
697.874	660.8
698.279	661.4
698.684	660.8
699.11	661.6
699.514	669.8
699.919	663.6
700.324	659.6
700.75	664.2
701.156	666.8
701.561	675
701.987	672.6
702.393	678.4
702.798	668.6
703.203	671.2
703.63	658.4
704.036	660.4
704.442	666.8
704.847	659.8
705.274	658.6
705.68	664.8
706.086	669.6
706.492	658
706.92	659.6
707.326	677.6
707.732	651.6
708.139	658
708.545	663.6
708.973	654.2
709.38	668
709.786	641.6
710.193	683.6
710.6	672.6
711.028	654.8
711.435	662.2
711.842	665
712.249	656.4
712.656	662.8
713.064	682
713.492	659.4
713.9	661.8
714.307	665.8
714.715	663
715.123	672.2
715.53	665.4
715.938	675.6
716.367	671
716.775	654.8
717.184	649.6
717.592	657.8
718	678.8
718.408	699.4
718.816	713.6
719.225	662.6
719.633	664
720.042	654
720.472	665.4
720.881	682.6
721.29	670.2
721.699	659.6
722.108	674.4
722.517	666.2
722.926	666.8
723.335	672.4
723.744	659
724.154	668
724.563	658.8
724.973	668.6
725.382	664.8
725.792	654
726.202	652
726.612	695.8
727.022	658.6
727.432	651.8
779.813	668
780.223	711.8
780.634	659.6
781.044	658.6
781.454	662.8
781.865	683
782.276	645.8
782.686	668.8
783.097	671
783.508	652.8
783.919	678.8
784.33	679.2
784.741	679
785.152	650.8
785.563	647
785.974	651.2
786.386	678.4
786.776	668.8
787.188	660.2
787.599	650.6
788.011	673.6
788.423	670.4
788.835	660.8
789.247	655.2
789.659	656.8
790.071	652
790.483	713
790.874	660.2
791.286	661.6
791.699	657.6
792.111	664.2
792.524	662
792.937	656
793.349	659.2
793.741	664.6
794.154	657.8
794.567	691.4
794.98	662.4
795.393	648.2
795.785	668.4
796.198	661
796.612	662.6
797.026	666.4
797.439	648.2
797.831	663
798.245	656
798.659	661.8
799.073	652.8
799.487	660
799.88	664.6
800.294	658.2
800.708	663.4
801.123	663.8
801.516	679.6
801.93	649.6
802.345	649.2
802.76	668.6
803.153	685.6
803.568	675.8
803.983	676
804.377	668.6
804.792	654.4
805.207	662.8
805.601	657.4
806.016	699.4
806.432	652
806.826	694.6
807.242	683.4
807.658	669.8
808.052	648.4
808.468	662.8
808.884	655.2
809.279	653.6
809.695	677
810.111	680.2
810.506	655.8
810.922	678.6
811.339	662.4
811.734	673
812.151	653.8
812.546	660.2
812.963	646.6
813.38	655
813.776	658.8
814.193	675.6
814.589	645
815.006	659
815.402	654.6
815.82	660.8
816.237	662
816.633	665
817.051	655.8
817.448	670.8
817.866	650.6
818.262	679.4
818.68	652.2
819.077	663.4
819.495	662
819.892	707.8
820.311	650.6
820.708	660.2
821.127	656.6
821.524	673
821.943	670
822.34	679.8
822.759	663.8
823.157	664.8
823.576	678.6
823.974	671.8
824.393	791.4
824.791	653.8
825.189	653.4
825.609	665.2
826.007	667.6
826.427	659.6
826.826	661
827.246	673.2
827.644	646.2
828.043	674.8
828.463	654.6
828.862	670.2
829.261	666.8
829.682	653.6
830.081	673.6
830.502	657.2
830.901	672
831.301	661.2
831.722	648.6
832.121	665.6
832.521	655.6
832.943	669.6
833.342	663.4
833.742	646.4
834.164	663
834.564	661.2
834.965	659.2
835.386	652.4
835.787	664.4
836.188	663.8
836.588	665.4
837.01	659.8
837.411	651.8
837.812	666.8
838.213	662.8
838.636	657.6
839.037	741.2
839.438	664.8
839.84	665
840.263	663.8
840.664	662.2
841.066	659.8
841.468	661
841.891	652.4
842.293	676
842.695	662.2
843.098	668.2
843.5	657
843.902	673.2
844.326	662.6
844.729	665.8
845.131	667.4
845.534	659
845.937	663
846.34	675.2
846.764	649.2
847.167	665.8
847.571	653.4
847.974	653.4
848.377	653.2
848.781	711
849.184	670
849.588	653.8
849.992	651
850.396	657.6
850.821	683.8
851.225	666.4
851.63	662.8
852.034	669
852.438	667
852.843	803.8
853.247	652
853.652	652.6
854.057	675.2
854.462	665.6
854.867	666
855.272	690.4
855.677	674.2
856.082	652
856.487	645.6
856.893	665.4
