#lambda/nm	C1
208.295	564
208.67	506
209.045	468.2
209.419	463
209.794	684.6
210.169	665.4
210.544	805.2
210.919	693.4
211.295	674
211.67	693.2
212.045	685.2
212.421	674.8
212.796	731.8
213.172	678.2
213.547	677.8
213.923	675.2
214.299	679.4
214.675	682.2
215.051	682.8
215.427	700.4
215.803	704.4
216.179	689.8
216.555	678.6
216.932	698.4
217.308	688
217.684	685.4
218.061	693.4
218.438	693
218.814	680
219.191	699.8
219.568	675.8
219.945	682.8
220.322	690.8
220.699	691.4
221.076	693
221.453	686.8
221.83	675
222.208	674
222.585	693
222.962	687.6
223.34	692.2
223.717	689.6
224.095	682.2
224.473	687.4
224.851	678.8
225.229	664.6
225.607	706.2
225.985	672.8
226.363	688.6
226.741	678
227.119	680
227.497	704.2
227.876	664.6
228.254	688.6
228.633	684.4
229.011	687.4
229.39	689.2
229.769	677.4
230.148	690.2
230.527	703.2
230.905	682.6
231.284	689.4
231.664	677.6
232.043	697.4
232.422	690.6
232.801	677.2
233.181	682.4
233.56	683
233.94	684.6
234.319	670
234.699	684.4
235.079	727.4
235.458	730.8
235.838	701
236.218	668.6
236.598	677
236.978	672.8
237.358	676.6
237.738	684
238.119	689.8
238.499	675.4
238.88	685
239.26	700.4
239.641	674.6
240.021	676.8
240.402	684.4
240.783	676.8
241.163	686.2
241.544	686.6
241.925	687.8
242.306	700.8
242.687	679.8
243.069	687.6
243.45	684.4
243.831	676.2
244.212	676.4
244.594	724.8
244.975	692
245.357	692.6
245.739	673.6
246.12	687.2
246.502	700.4
246.884	682.8
247.266	688.6
247.648	680.8
248.03	713.8
248.412	688.6
248.794	686.8
249.176	685.8
249.559	701.4
249.941	670
250.323	679
250.706	683.6
251.089	679
251.471	693.2
251.854	675.4
252.237	683
252.62	696.4
253.002	683.4
253.385	679.4
253.769	708.2
254.152	685.8
254.535	689.2
254.918	673.4
255.301	683.8
255.685	694.6
256.068	668.8
256.452	710.6
256.835	691
257.219	700.4
257.603	694.2
257.986	682.2
258.37	693.6
258.754	670.6
259.138	696.2
259.522	700.6
259.906	685.2
260.29	689.6
260.675	684.2
261.059	683.6
261.443	667.6
261.828	682.4
262.212	686.4
262.597	673.2
262.981	673
263.366	694
263.751	678
264.136	680
264.521	685
264.906	675.2
265.291	700.6
265.676	686.4
266.061	680.2
266.446	702.4
266.831	679
267.217	708.8
267.602	685.4
267.987	683.8
268.373	682.4
268.759	694
269.144	694.6
269.53	700.6
269.916	682
270.302	681.8
270.688	687.2
271.074	685.6
271.46	698.8
271.846	725.4
272.232	686.2
272.618	684.2
273.004	685.4
273.391	701.2
273.777	702.2
274.164	683.2
274.55	705.4
274.937	686
275.324	681.2
275.71	689
276.097	692.4
276.484	670.2
276.871	684.4
277.258	687.8
277.645	669.6
278.032	683.4
278.419	664.4
278.807	683.6
279.194	677
279.581	677
279.969	690.8
280.356	687.8
280.744	683.2
281.131	713.4
281.519	696.8
281.907	680.8
282.295	678.4
282.682	695
283.07	680.8
283.458	698
283.846	696.6
284.235	697.4
284.623	700.2
285.011	682.8
285.399	684.2
285.788	688.2
286.176	670.8
286.565	701
286.953	682.6
287.342	677.8
287.731	676
288.119	677.6
288.508	685.8
288.897	687.4
289.286	665.8
289.675	686.8
290.064	692.6
290.453	681.8
290.821	676
291.21	702.8
291.599	679.4
291.989	688.4
292.378	693.6
292.768	710.2
293.157	689.6
293.547	690.2
293.936	678
294.326	681.2
294.716	687.2
295.106	694.2
295.496	686
295.886	694.8
296.276	692.2
296.666	683.8
297.056	679.8
297.446	673
297.836	701.6
298.227	688.2
298.617	687.2
299.008	705.8
299.398	677.2
299.789	683
300.179	692.8
300.57	700.8
300.961	678.6
301.352	681.6
301.742	699.8
302.133	684.8
302.524	687
302.915	703
303.307	676.8
303.698	702
304.089	696
304.48	682.2
304.872	689
305.263	691.4
305.655	686.6
306.046	695.6
306.438	701.4
306.829	676.8
307.221	705.2
307.613	689.6
308.005	701
308.397	698.6
308.789	709.4
309.181	713.6
309.573	699.4
309.965	705.4
310.357	690.8
310.749	697.8
311.142	678.4
311.534	681.6
311.926	686.6
312.319	692.4
312.711	683.2
313.104	709
313.497	686.6
313.889	723
314.282	701.8
314.675	722.8
315.068	696.2
315.461	694.6
315.854	727.4
316.247	698.2
316.64	682
317.033	685.4
317.405	696.6
317.798	683.2
318.192	695.4
318.585	679.6
318.979	690.6
319.372	687.2
319.766	684
320.16	709.2
320.553	705
320.947	706
321.341	679.2
321.735	682.8
322.129	670
322.523	712.6
322.917	676.6
323.311	707.2
323.705	688.4
324.099	697.8
324.494	705.2
324.888	710.6
325.282	677.4
325.677	699.2
326.071	697.2
326.466	704.6
326.861	697
327.255	702
327.65	703
328.045	713.8
328.44	689.2
328.835	700.4
329.23	687.6
329.625	715.6
330.02	682
330.415	711.4
330.81	687.2
331.206	688.8
331.601	686.2
331.996	704.4
332.37	713.8
332.766	677
333.161	705
333.557	677.8
333.953	690.2
334.348	951
334.744	681.8
335.14	676
335.536	685.2
335.932	704.2
336.328	696
336.724	691.6
337.12	689
337.516	693.2
337.913	687.2
338.309	694.6
338.705	683.8
339.102	689.8
339.498	687.8
339.895	702.6
340.291	683
340.688	699.2
341.085	674.6
341.481	684.4
341.878	678.8
342.275	701.6
342.672	671.8
343.069	682.6
343.466	669.4
343.842	698
344.239	676.2
344.636	692.2
345.033	683.4
345.431	684.2
345.828	695.4
346.225	675.2
346.623	730.6
347.02	681.4
347.418	693.2
347.816	704.8
348.213	668.8
348.611	693.6
349.009	674
349.407	687.6
349.805	671.6
350.203	665.6
350.601	704
350.999	676.6
351.397	753.2
351.795	683
352.193	687.4
352.57	694.2
352.969	693
353.367	672.6
353.766	672.4
354.164	687.6
354.563	697.2
354.961	679.2
355.36	683
355.759	685
356.158	676.2
356.557	680.8
356.956	677.2
357.355	677.2
357.754	697
358.153	692.2
358.552	711.2
358.951	686.4
359.35	695.2
359.75	676.6
360.149	671
360.527	661.6
360.926	681.8
361.326	689
361.726	684.6
362.125	673.4
362.525	681.4
362.925	678.6
363.325	685
363.724	683.4
364.124	683.2
364.524	674.6
364.924	683.2
365.324	694
365.725	663.2
366.125	682
366.525	686.4
366.904	672.8
367.304	666.8
367.705	704.2
368.105	690.4
368.506	681.8
368.906	673
369.307	682.6
369.708	688.2
370.108	664
370.509	699.2
370.91	675.8
371.311	679.6
371.712	689.2
372.113	666.2
372.514	677
372.894	673.6
373.295	675.4
373.696	690.8
374.097	690.6
374.499	707.6
374.9	682
375.301	680.8
375.703	687.6
376.105	671.8
376.506	684.8
376.908	690
377.309	680.4
377.711	677.2
378.113	674.8
378.493	679.2
378.895	663.4
379.297	690.2
379.699	661.6
380.102	689.8
380.504	682.6
380.906	673
381.308	697.4
381.71	674
382.113	688.6
382.515	670.6
382.918	679
383.299	673.6
383.701	683
384.104	676.4
384.507	658.2
384.909	672.2
385.312	666.4
385.715	669.6
386.118	666.2
386.521	663
386.924	689.4
387.327	673.4
387.709	670.8
388.112	658.2
388.515	677.4
388.918	672
389.322	681.2
389.725	671
390.129	711.8
390.532	690.6
390.936	667.4
391.339	676.4
391.743	681
392.125	661.8
392.529	689.8
392.933	688.2
393.337	687
393.74	676.6
394.144	684.6
394.548	669.4
394.953	682.4
395.357	696
395.761	678.8
396.144	679.8
396.548	678.8
396.952	685.2
397.357	682.6
397.761	671.8
398.166	678.4
398.57	678.8
398.975	671.8
399.379	675.6
399.763	743.4
400.168	682.2
400.572	684.4
400.977	676.4
401.382	698.6
401.787	691.8
402.192	710
402.597	692.6
403.002	672
403.386	687.4
403.791	704
404.197	676.8
404.602	682.4
405.007	673.4
405.413	677
405.818	684.4
406.224	676.2
406.608	675.8
407.014	670.6
407.42	700.2
407.825	679.8
408.231	682.8
408.637	678.8
409.043	699.6
409.449	670.8
409.834	677
410.24	677.2
410.646	702
411.052	687.4
411.458	677.4
411.865	687.2
412.271	694.8
412.677	680
413.062	686.8
413.469	672.6
413.875	708.6
414.282	687.4
414.689	682.4
415.095	682
415.502	676.2
415.888	675.4
416.294	659
416.701	729.6
417.108	674.2
417.515	690.6
417.923	665
418.33	701.8
418.715	686.8
419.123	680.6
419.53	681
419.937	680
420.345	699.8
420.752	679.6
421.16	703
421.546	688.6
421.953	692.4
422.361	677.4
422.769	684.2
423.177	679.4
423.585	713
423.992	711.6
424.379	692.8
424.787	692.4
425.195	700.4
425.603	679.4
426.011	707.2
426.419	691.6
426.806	682.2
427.214	681.8
427.623	700.2
428.031	693
428.44	686.2
428.848	699.8
429.235	698.6
429.644	684.4
430.053	686.8
430.461	703.6
430.87	713.4
431.279	706.6
431.666	680.4
432.075	693.8
432.484	687.2
432.893	695
433.302	714.6
433.711	739.4
434.099	700.2
434.508	690.6
434.918	686.8
435.327	703.6
435.737	701.6
436.125	698.8
436.534	701.2
436.944	709.4
437.353	713
437.763	725.6
438.173	688.2
438.561	713.6
438.971	680.4
439.381	704.4
439.791	706.8
440.201	692
440.589	713
440.999	723.8
441.409	717.8
441.819	703.8
442.23	731
442.619	726.8
443.029	708
443.439	719.4
443.85	731.8
444.26	742.2
444.649	727.2
445.06	725.6
445.471	713
445.881	721.8
446.292	738.2
446.682	744
447.092	712
447.503	785.4
447.914	726.2
448.325	727.2
448.715	728.8
449.126	719.2
449.537	730.8
449.948	724.2
450.338	730.8
450.75	736.8
451.161	725.8
451.572	732
451.984	721.4
452.374	720.2
452.786	729.6
453.197	734.4
453.609	744
453.999	725.8
454.411	730.6
454.823	746.4
455.235	734.2
455.647	732.2
456.037	741.6
456.449	717.2
456.862	734.8
457.274	747.4
457.665	734.8
458.077	752
458.489	776.4
458.902	727.2
459.293	736.6
459.705	732.8
460.118	724.2
460.53	738.8
460.921	738.4
461.334	735.6
461.747	740.2
462.16	756.4
462.551	751.4
462.964	744.4
463.377	720.8
463.79	740.4
464.182	752.8
464.595	729
465.008	737.8
465.421	749
465.813	731
466.226	745.4
466.64	739.2
467.053	792
467.445	759.8
467.859	751.6
468.272	748.8
468.686	749.4
469.078	738.6
469.492	736.6
469.906	747.4
470.298	750.4
470.712	721.6
471.126	792.6
471.54	729.8
471.933	723.6
472.347	732.2
472.761	737.4
473.175	732
473.568	730.4
473.982	729.4
474.397	742
474.79	734.4
475.204	737.4
475.619	728.4
476.033	741.2
476.426	731.6
476.841	727.2
477.256	762.4
477.649	723.4
478.064	732.4
478.479	728.8
478.872	735
479.287	719.8
479.702	726.8
480.118	727
480.511	734.6
480.927	723.4
481.342	734
481.736	726.2
482.151	727.2
482.566	741.6
482.96	729.8
483.376	749.8
483.792	723.4
484.186	736.4
484.602	727.2
485.017	728.8
485.412	728
485.827	722.2
486.243	724.8
486.638	757
487.054	734.4
487.47	739.8
487.865	728
488.281	716.6
488.697	719
489.092	714.6
489.508	709.2
489.925	737.6
490.32	710.8
490.736	724.8
491.153	729.4
491.548	722.2
491.964	722.2
492.381	711.4
492.776	728
493.193	718.2
493.61	732.2
494.006	719
494.422	729
494.84	713.6
495.235	724.2
495.652	726
496.069	711.8
496.465	714.6
496.883	714.8
497.3	750.6
497.696	721
498.113	723.8
498.509	707
498.927	709.2
499.344	713
499.741	710
500.158	728.4
500.576	726.4
500.973	717
501.39	704
501.787	708.4
502.205	716.2
502.623	720.2
503.02	701
503.438	705.6
503.856	708.2
504.253	715.4
504.671	710.4
505.068	706.2
505.486	710.8
505.905	729
506.302	712
506.72	725.4
507.118	699
507.536	713.6
507.955	712.6
508.352	713.4
508.771	709.4
509.169	714.2
509.587	702.8
510.006	713.6
510.404	691.2
510.823	698.2
511.221	708.6
511.64	704.8
512.038	720.2
512.457	693
512.877	701
513.275	698.8
513.694	705
514.092	699.2
514.512	709.8
514.91	698
515.33	703.4
515.749	708
516.148	704.6
516.568	703.8
516.966	693
517.386	693.6
517.785	700.6
518.205	694.8
518.603	688.6
519.024	682.8
519.444	694.2
519.843	704.4
520.263	712.6
520.662	696.6
521.082	695
521.481	695.2
521.902	701.4
522.301	704.8
522.722	697.8
523.121	691
523.542	695.2
523.963	691.2
524.362	688.4
524.783	697.2
525.183	690.8
525.604	694.8
526.003	685.8
526.425	681.8
526.824	697.6
527.246	709.2
527.646	706
528.067	700.2
528.467	691.4
528.888	695.2
529.289	695.2
529.71	686.8
530.11	695
530.532	689.8
530.932	689.6
531.354	678.8
531.755	721.4
532.176	696.6
532.577	685.2
532.999	696.4
533.4	680.8
533.822	699.8
534.223	681.8
534.645	683.4
535.046	685.6
535.468	690.4
535.869	702
536.292	683.2
536.693	725.6
537.115	688
537.516	676.4
537.939	693.6
538.34	711.4
538.742	699.2
539.165	687.4
539.566	689.6
539.989	682.4
540.391	677
540.814	675.4
541.216	696.4
541.639	687.4
542.041	690.6
542.464	683.2
542.866	672.6
543.268	672
543.691	689
544.093	684
544.517	706.2
544.919	670
545.343	701
545.745	672.4
546.147	680.2
546.571	671.4
546.974	664
547.398	670.6
547.8	698.2
548.224	676.2
548.627	678
549.03	680.6
549.454	667.6
549.857	667.6
550.281	675.4
550.684	668.8
551.087	688.4
551.512	682.2
551.915	684.6
552.34	678.4
552.743	666.2
553.146	679
553.571	677.2
553.975	697.8
554.399	672
554.803	736
555.207	673.6
555.632	662.6
556.036	677.4
556.461	665.8
556.865	683.2
557.268	677.2
557.694	678.8
558.098	680.2
558.502	681.8
558.927	676.4
559.332	680.6
559.736	680.2
560.162	687.8
560.566	670.2
560.992	684.2
561.396	676.6
561.801	669.4
562.227	679.8
562.631	671
563.036	684
563.462	683
563.867	675
564.272	659.6
564.698	676.6
565.103	664.6
565.508	699
565.935	679
566.34	678.2
566.745	688.2
567.172	670.6
567.577	702
567.982	691
568.409	680.6
568.815	666.2
569.22	680.6
569.626	684.4
570.053	664.2
570.459	685
570.865	682.4
571.292	681.6
571.698	680.4
572.104	664.6
572.531	673.6
572.937	693.4
573.343	675
573.75	676.8
574.177	668.6
574.583	679
574.99	673.2
575.396	673.8
575.824	671.8
576.231	670.8
576.637	667.6
577.065	695.8
577.472	673.8
577.879	670.2
578.286	683.4
578.714	668
579.121	661.6
579.528	666.2
579.935	679.2
580.364	679.2
580.771	657.4
581.178	668
581.585	680.8
582.014	678.8
582.421	668
582.829	672.4
583.236	681.2
583.644	666.2
584.073	665
584.481	667.4
584.889	658.4
585.296	677
585.726	673.4
586.134	662
586.542	672.2
586.95	680.6
587.358	658.2
587.787	673.6
588.196	656.2
588.604	673.8
589.012	672.4
589.421	652.4
589.851	662.8
590.259	668
590.668	658.4
591.076	696.6
591.485	659.8
591.894	661.4
592.324	678
592.733	676.8
593.142	654.2
593.551	663.4
593.96	668.6
594.369	657.2
594.8	651
595.209	661.2
595.618	652.2
596.028	665.8
596.437	659.8
596.847	664.8
597.256	665.2
597.687	678
598.097	666
598.507	664.2
598.917	671.6
599.327	678.2
599.736	673
600.146	678.4
600.556	665
600.988	677.2
601.398	658.8
601.808	676.2
602.219	656
602.629	668.8
603.039	674
603.45	704.8
603.86	664
604.271	683
604.703	662.8
605.114	665.8
605.525	671
605.935	670.4
606.346	695.4
606.757	673.6
607.168	667
607.579	669
607.99	676.2
608.402	661.2
608.813	672.6
609.224	666.4
609.636	656.6
610.047	650.8
610.48	665.4
610.892	673.4
611.303	673.6
611.715	656.4
612.127	661
612.539	663.2
612.95	671
613.362	654
613.774	657.6
614.186	660.6
614.599	667.2
615.011	675
615.423	664.2
615.835	660.2
616.248	657.4
616.66	675.4
617.073	645.2
617.485	662
617.898	669
618.311	672
618.723	662.6
619.136	699.2
619.549	684.4
619.962	691.4
620.375	661.2
620.788	671
621.201	662.4
621.614	668.2
622.028	657
622.441	664
622.854	679
623.268	665.4
623.681	670.2
624.095	669.4
624.509	675.8
624.922	668.2
625.336	654.2
625.728	656.2
626.142	674
626.556	687.8
626.97	665
627.384	652.6
627.799	657.4
628.213	673.2
628.627	659.6
629.041	672.6
629.456	660.8
629.87	667.2
630.285	672.2
630.699	674
631.093	664
631.507	668.6
631.922	665
632.337	682.2
632.752	651.4
633.167	667.4
633.582	660.6
633.997	649.6
634.412	649.8
634.806	662.2
635.221	652.4
635.637	672.2
636.052	653.8
636.468	666.4
636.883	688.4
637.299	659.2
637.715	657.4
638.109	661.2
638.525	648.4
638.941	675
639.357	661.8
639.773	684.8
640.189	660.2
640.584	667.8
641	665.8
641.416	655.4
641.832	657.8
642.249	664
642.665	661.8
643.06	666.6
643.477	667.4
643.894	649.2
644.31	662.8
644.727	663
645.123	666.2
645.54	651.6
645.957	667
646.374	676.6
646.77	666.2
647.187	689.2
647.604	670.2
648.021	642.4
648.439	649.6
648.835	656.8
649.252	664
649.67	656.2
650.088	666.4
650.484	670
650.902	668.6
651.32	669.2
651.738	649.6
652.134	671.8
652.552	678
652.971	668.2
653.389	667.6
653.786	671.2
654.204	682.2
654.622	647
655.019	663.8
655.438	660
655.857	664.6
656.275	660
656.673	658.2
657.091	745.2
657.51	660.4
657.908	672.8
658.327	685.6
658.746	652.2
659.144	658.4
659.563	685
659.982	672.4
660.38	655.2
660.8	665
661.219	674.2
661.617	661.6
662.037	658.6
662.457	680.8
662.855	643.8
663.275	697.6
663.695	660.8
664.094	666
664.514	664
664.934	654.2
665.333	668.8
665.753	653.4
666.152	655.2
666.572	654.6
666.993	679.2
667.392	657.6
667.812	658.6
668.212	668
668.632	676.4
669.053	664.2
669.453	676
669.874	664.4
670.273	662.6
670.694	649.4
671.116	676.4
671.515	668.2
671.937	668
672.337	660.2
672.758	661.4
673.158	674.2
673.58	650.2
673.98	661.2
674.402	670.6
674.824	668.8
675.224	652.6
675.646	653
676.047	651
676.469	660.6
676.869	662.2
677.292	669
677.693	657.6
678.115	659.8
678.516	665.2
678.939	664.8
679.34	659.4
679.762	667.4
680.164	666
680.586	649.6
680.988	663.8
681.411	684.2
681.812	657.4
682.236	647.6
682.637	647.4
683.061	650
683.462	665.8
683.864	656
684.288	662.8
684.69	651.6
685.114	666.6
685.516	671.4
685.94	656.2
686.342	670.2
686.766	654.2
687.168	657.6
687.571	671
687.995	668.2
688.398	651.8
688.822	656
689.225	675.4
689.628	681.2
690.052	660.2
690.456	669.4
690.88	658.8
691.284	650.8
691.687	663.2
692.112	644.6
692.515	646.4
692.919	659.4
693.344	660.2
693.747	648.8
694.173	654.6
694.577	664.4
694.98	655
695.406	657
695.81	656
696.214	663.6
696.64	660.2
697.044	660
697.448	663.2
697.874	658.2
698.279	652.8
698.684	652.4
699.11	649.2
699.514	655.6
699.919	659.4
700.324	655.4
700.75	657.8
701.156	668.8
701.561	670.2
701.987	662.4
702.393	669.2
702.798	669.8
703.203	668.2
703.63	643.6
704.036	647.4
704.442	652.8
704.847	649
705.274	654.8
705.68	664.6
706.086	667.4
706.492	651
706.92	661.4
707.326	666
707.732	652.8
708.139	646.4
708.545	657.4
708.973	654.4
709.38	664.2
709.786	649.6
710.193	682
710.6	663
711.028	654.6
711.435	657.8
711.842	656.4
712.249	660.8
712.656	651.6
713.064	671
713.492	653.8
713.9	656.2
714.307	662.6
714.715	654.6
715.123	664.6
715.53	661.8
715.938	670
716.367	664.6
716.775	655.2
717.184	653.8
717.592	661.6
718	669.2
718.408	695.8
718.816	709.2
719.225	667.8
719.633	665.8
720.042	660
720.472	664.4
720.881	679.8
721.29	659.4
721.699	641.2
722.108	658
722.517	661.2
722.926	653.8
723.335	666.2
723.744	658
724.154	652.4
724.563	664.4
724.973	663.8
725.382	656.2
725.792	657.8
726.202	643.6
726.612	673.8
727.022	666.2
727.432	646.2
779.813	655
780.223	698.2
780.634	662
781.044	646.6
781.454	656.8
781.865	678.4
782.276	660
782.686	659.2
783.097	663.8
783.508	655
783.919	661.8
784.33	676.6
784.741	666.6
785.152	647.6
785.563	644.4
785.974	651.6
786.386	664
786.776	645
787.188	657.4
787.599	646.8
788.011	667.8
788.423	661
788.835	650.4
789.247	650.8
789.659	660
790.071	654.6
790.483	706.8
790.874	651.2
791.286	664
791.699	654.6
792.111	658.4
792.524	663.2
792.937	652.4
793.349	647.2
793.741	647.8
794.154	647.6
794.567	676.4
794.98	663.8
795.393	644.4
795.785	674.6
796.198	656
796.612	660.8
797.026	648.6
797.439	642
797.831	655.2
798.245	650.8
798.659	651
799.073	649.4
799.487	653.8
799.88	651.6
800.294	653.4
800.708	660.4
801.123	654.8
801.516	681
801.93	640.8
802.345	643.2
802.76	662.4
803.153	667.4
803.568	665.6
803.983	668
804.377	667
804.792	645.8
805.207	638.6
805.601	662.2
806.016	685.4
806.432	649.8
806.826	683.6
807.242	663.8
807.658	657.6
808.052	656.8
808.468	652.4
808.884	653.4
809.279	643.2
809.695	666.6
810.111	681.6
810.506	661.2
810.922	674
811.339	644.8
811.734	671.4
812.151	657.2
812.546	647.6
812.963	656.6
813.38	654.8
813.776	658
814.193	686.4
814.589	651
815.006	655.4
815.402	647
815.82	646.4
816.237	664.6
816.633	660.6
817.051	640.4
817.448	657.4
817.866	642.8
818.262	679
818.68	654.2
819.077	650.8
819.495	647
819.892	697.8
820.311	645.6
820.708	646.2
821.127	652.6
821.524	674.2
821.943	659.6
822.34	676
822.759	661.2
823.157	654.2
823.576	669.6
823.974	680.8
824.393	779.2
824.791	645.6
825.189	651.8
825.609	646.8
826.007	657.2
826.427	636.4
826.826	657.8
827.246	657.8
827.644	640
828.043	669.6
828.463	649
828.862	666.2
829.261	663.8
829.682	637.8
830.081	666.6
830.502	643.2
830.901	661.6
831.301	656.8
831.722	635.8
832.121	655.6
832.521	646.6
832.943	645.2
833.342	648.2
833.742	642.6
834.164	645.2
834.564	648.2
834.965	656
835.386	655.2
835.787	644.4
836.188	652
836.588	655.4
837.01	646
837.411	646.8
837.812	651.6
838.213	660.4
838.636	659.4
839.037	732.2
839.438	656.8
839.84	657
840.263	659
840.664	663.2
841.066	653.6
841.468	653.2
841.891	651
842.293	668
842.695	662.8
843.098	665.6
843.5	662.2
843.902	658.4
844.326	658.8
844.729	660.4
845.131	671.4
845.534	658
845.937	675.8
846.34	671.8
846.764	649.2
847.167	654.6
847.571	654.8
847.974	647.4
848.377	647.6
848.781	698.8
849.184	661.4
849.588	655.6
849.992	642.6
850.396	657.4
850.821	682.2
851.225	657.4
851.63	652.2
852.034	660.2
852.438	649.2
852.843	792.8
853.247	641.2
853.652	650
854.057	675
854.462	658
854.867	651.8
855.272	685.8
855.677	655.8
856.082	639
856.487	642.2
856.893	659.6
