#lambda/nm	C1
208.295	557.8
208.67	503.4
209.045	462.8
209.419	462.4
209.794	689.6
210.169	673.6
210.544	809.2
210.919	703.8
211.295	673.2
211.67	687
212.045	694
212.421	682.4
212.796	731
213.172	700
213.547	682.2
213.923	688.2
214.299	670.8
214.675	699.8
215.051	698.8
215.427	690.4
215.803	710.4
216.179	694.6
216.555	680.8
216.932	695.4
217.308	680.4
217.684	696.4
218.061	692.4
218.438	690.8
218.814	675
219.191	700.8
219.568	677.6
219.945	681.6
220.322	696
220.699	702.4
221.076	703.2
221.453	697
221.83	688.6
222.208	689.6
222.585	686
222.962	696.6
223.34	691.6
223.717	699.4
224.095	685.2
224.473	683.8
224.851	682.8
225.229	675
225.607	704.4
225.985	678.4
226.363	685.8
226.741	698.8
227.119	687.8
227.497	695.2
227.876	673.4
228.254	695
228.633	686
229.011	689.2
229.39	685.4
229.769	695.4
230.148	699.6
230.527	716.6
230.905	685.8
231.284	692
231.664	686.6
232.043	704
232.422	709.4
232.801	682.6
233.181	689
233.56	684.8
233.94	687.4
234.319	683.8
234.699	684.8
235.079	739.2
235.458	730
235.838	707.8
236.218	684
236.598	678.4
236.978	679.4
237.358	678.2
237.738	688.6
238.119	693.6
238.499	685.8
238.88	681.4
239.26	698
239.641	674.6
240.021	675.2
240.402	688.6
240.783	682.6
241.163	689.2
241.544	681.6
241.925	683.4
242.306	703.6
242.687	680
243.069	689.2
243.45	695.2
243.831	677.6
244.212	687.2
244.594	743.2
244.975	688.2
245.357	688.2
245.739	688.2
246.12	691.4
246.502	707.6
246.884	679.2
247.266	689
247.648	688.8
248.03	717.8
248.412	684.6
248.794	693.2
249.176	682.4
249.559	706
249.941	687.4
250.323	681.6
250.706	687
251.089	688.4
251.471	688.4
251.854	693.4
252.237	680.8
252.62	695.6
253.002	695.4
253.385	685.8
253.769	703.2
254.152	690.4
254.535	693
254.918	676.6
255.301	686.8
255.685	687
256.068	680.6
256.452	720.2
256.835	709.4
257.219	695.4
257.603	698.4
257.986	684.8
258.37	692.6
258.754	682
259.138	701.8
259.522	706.8
259.906	692
260.29	696.6
260.675	693.6
261.059	687
261.443	676
261.828	689
262.212	692.2
262.597	676
262.981	678.2
263.366	690.8
263.751	690.6
264.136	685.6
264.521	685.8
264.906	686
265.291	697.6
265.676	689
266.061	694.6
266.446	712.4
266.831	683.8
267.217	707.8
267.602	690.8
267.987	696
268.373	681
268.759	689.4
269.144	698
269.53	688
269.916	684.2
270.302	683.6
270.688	686
271.074	691
271.46	702.2
271.846	723
272.232	687
272.618	685.2
273.004	685.6
273.391	699
273.777	708.4
274.164	694.6
274.55	702.8
274.937	703.2
275.324	687.2
275.71	692
276.097	690.6
276.484	685.4
276.871	695.2
277.258	701
277.645	680
278.032	687.2
278.419	686
278.807	692.6
279.194	674.6
279.581	678.4
279.969	698.6
280.356	687
280.744	690.4
281.131	718.6
281.519	704.6
281.907	687.2
282.295	683.8
282.682	699.6
283.07	699.6
283.458	694.2
283.846	712.8
284.235	703.8
284.623	697.4
285.011	677.8
285.399	691.2
285.788	689.4
286.176	679
286.565	714.2
286.953	685
287.342	694
287.731	686.6
288.119	679.2
288.508	677
288.897	689
289.286	668.8
289.675	686.6
290.064	708
290.453	689.6
290.821	691.4
291.21	701.8
291.599	683.2
291.989	692
292.378	688.6
292.768	711.8
293.157	689.4
293.547	701
293.936	681.6
294.326	678
294.716	687
295.106	689.8
295.496	700.8
295.886	698
296.276	698.4
296.666	680.2
297.056	695.6
297.446	684.4
297.836	706.8
298.227	685.6
298.617	694
299.008	711.4
299.398	690.6
299.789	682.8
300.179	706.4
300.57	703
300.961	690.4
301.352	677.6
301.742	701.6
302.133	688.6
302.524	687.4
302.915	695.4
303.307	688
303.698	697.4
304.089	698.2
304.48	688.4
304.872	693.8
305.263	687.2
305.655	687.8
306.046	699
306.438	701
306.829	683.8
307.221	702.4
307.613	704.6
308.005	703.2
308.397	705.2
308.789	716.6
309.181	718.4
309.573	717.4
309.965	696.4
310.357	693.4
310.749	704.4
311.142	679.8
311.534	689.8
311.926	698.2
312.319	700
312.711	683.6
313.104	699.4
313.497	684
313.889	738.4
314.282	709.8
314.675	728.8
315.068	696.2
315.461	701.4
315.854	729.2
316.247	699
316.64	702.8
317.033	696.2
317.405	704.2
317.798	692.6
318.192	694.2
318.585	683
318.979	701.4
319.372	690
319.766	693.6
320.16	702.2
320.553	712.4
320.947	723.2
321.341	694.4
321.735	697.2
322.129	682.6
322.523	722
322.917	685.6
323.311	704.2
323.705	700.2
324.099	702.4
324.494	711.8
324.888	703.2
325.282	687.2
325.677	705
326.071	696.4
326.466	702.2
326.861	700.8
327.255	706.6
327.65	712
328.045	715
328.44	693.6
328.835	699.6
329.23	680.2
329.625	716
330.02	690.2
330.415	721.8
330.81	693.4
331.206	695.4
331.601	681.4
331.996	702.8
332.37	712.8
332.766	684.8
333.161	718.4
333.557	691
333.953	684.8
334.348	1014.8
334.744	689.6
335.14	685
335.536	685.2
335.932	706.8
336.328	695.8
336.724	705.6
337.12	686.8
337.516	699.6
337.913	685.6
338.309	712.2
338.705	697.8
339.102	696.8
339.498	691.6
339.895	703
340.291	689.2
340.688	710.2
341.085	680.4
341.481	689.2
341.878	697.4
342.275	721.6
342.672	678.6
343.069	686.6
343.466	672.8
343.842	692.8
344.239	682.4
344.636	694
345.033	675.6
345.431	684.4
345.828	683.4
346.225	681
346.623	723.6
347.02	688.6
347.418	703
347.816	707.8
348.213	675.4
348.611	697.8
349.009	684.6
349.407	715
349.805	680.2
350.203	678.2
350.601	704.2
350.999	688.4
351.397	750.4
351.795	698.2
352.193	700.2
352.57	701.6
352.969	711
353.367	681.4
353.766	678.8
354.164	692.2
354.563	710.6
354.961	693.6
355.36	684.2
355.759	688
356.158	678.4
356.557	682
356.956	686.8
357.355	686.4
357.754	695.2
358.153	700
358.552	721.6
358.951	683.8
359.35	703
359.75	674.2
360.149	677
360.527	673.6
360.926	676.2
361.326	694.2
361.726	683.6
362.125	677.8
362.525	691.6
362.925	688.2
363.325	694.8
363.724	697.2
364.124	683
364.524	685
364.924	682.2
365.324	701.2
365.725	666.8
366.125	686
366.525	685
366.904	679.2
367.304	669.4
367.705	705.8
368.105	701.6
368.506	683.8
368.906	680.8
369.307	683.6
369.708	687
370.108	674
370.509	694.4
370.91	671.6
371.311	691
371.712	672.8
372.113	682
372.514	675.8
372.894	678.2
373.295	682.2
373.696	699.8
374.097	698.8
374.499	718.8
374.9	678
375.301	675.6
375.703	684.6
376.105	678.6
376.506	685.6
376.908	691.2
377.309	681.4
377.711	682.4
378.113	677.6
378.493	686.8
378.895	683.2
379.297	700.6
379.699	666.8
380.102	689
380.504	686.2
380.906	670.8
381.308	706.8
381.71	687
382.113	691
382.515	685.8
382.918	679.8
383.299	683
383.701	690.4
384.104	681.6
384.507	657.8
384.909	687.2
385.312	676.2
385.715	668.6
386.118	675.8
386.521	669.4
386.924	687.2
387.327	666.2
387.709	672.6
388.112	669.8
388.515	679.8
388.918	687.2
389.322	683.2
389.725	682.4
390.129	707.6
390.532	696.2
390.936	684.2
391.339	678.6
391.743	683.2
392.125	673.8
392.529	693.2
392.933	697.4
393.337	685.2
393.74	688.2
394.144	691.4
394.548	682.4
394.953	682.8
395.357	693
395.761	678.4
396.144	677.8
396.548	683
396.952	692.4
397.357	689.2
397.761	678
398.166	675.2
398.57	672.8
398.975	665.8
399.379	682.4
399.763	744.8
400.168	689.4
400.572	690.8
400.977	683.8
401.382	705.8
401.787	696.6
402.192	708.6
402.597	694
403.002	666.8
403.386	700.6
403.791	702
404.197	682.6
404.602	681.8
405.007	681.4
405.413	671
405.818	680.8
406.224	671.4
406.608	675.2
407.014	676.2
407.42	702.2
407.825	678
408.231	689.2
408.637	689.6
409.043	697
409.449	676.8
409.834	674.4
410.24	680.4
410.646	690.2
411.052	690.4
411.458	685.4
411.865	688.8
412.271	694.8
412.677	682.4
413.062	687.6
413.469	681.2
413.875	709.2
414.282	701.4
414.689	690
415.095	694.8
415.502	672.8
415.888	692
416.294	664.2
416.701	728.2
417.108	674.8
417.515	688.6
417.923	687.6
418.33	707.2
418.715	688.8
419.123	679.6
419.53	683.4
419.937	681
420.345	708.2
420.752	676.4
421.16	699.4
421.546	685.4
421.953	698.6
422.361	681.6
422.769	684.4
423.177	674.8
423.585	712.8
423.992	710
424.379	700.6
424.787	695.6
425.195	706.2
425.603	692.6
426.011	704
426.419	695.4
426.806	694.4
427.214	689
427.623	697.8
428.031	703.8
428.44	689.6
428.848	709.2
429.235	710.8
429.644	687.2
430.053	692
430.461	712.8
430.87	720.4
431.279	695
431.666	680
432.075	691.8
432.484	699.6
432.893	691.8
433.302	733.2
433.711	754.8
434.099	706.4
434.508	691.8
434.918	682.6
435.327	721.2
435.737	701.2
436.125	704.4
436.534	712
436.944	716.2
437.353	711
437.763	731.6
438.173	701.6
438.561	726.8
438.971	702.2
439.381	718.8
439.791	715.2
440.201	695.8
440.589	722
440.999	727.4
441.409	717.4
441.819	709.6
442.23	732.4
442.619	740.2
443.029	723.4
443.439	738.2
443.85	750.2
444.26	747.2
444.649	736.2
445.06	733.2
445.471	729.4
445.881	734.6
446.292	750.4
446.682	761.2
447.092	725
447.503	797
447.914	738
448.325	735.4
448.715	737.6
449.126	731.2
449.537	745.4
449.948	746.4
450.338	739.4
450.75	751.2
451.161	744.6
451.572	753.4
451.984	732.4
452.374	728.4
452.786	744.4
453.197	762.2
453.609	754.6
453.999	726
454.411	734.2
454.823	765.2
455.235	754.6
455.647	737.2
456.037	755
456.449	729.6
456.862	749.2
457.274	739.8
457.665	738.4
458.077	761.6
458.489	787.8
458.902	741.4
459.293	750.2
459.705	754.8
460.118	745
460.53	743.8
460.921	753.4
461.334	757.4
461.747	757.6
462.16	751
462.551	775
462.964	754.4
463.377	736.8
463.79	745.4
464.182	764.8
464.595	744.4
465.008	752.8
465.421	758.2
465.813	745.6
466.226	763
466.64	757.4
467.053	807.2
467.445	758.2
467.859	779.2
468.272	755
468.686	769.4
469.078	757.6
469.492	736
469.906	753.2
470.298	765.6
470.712	735.6
471.126	814
471.54	736.2
471.933	743.6
472.347	747.8
472.761	743
473.175	742
473.568	737.8
473.982	739.4
474.397	751.2
474.79	753
475.204	755.6
475.619	742.4
476.033	750
476.426	758.2
476.841	749.6
477.256	774.2
477.649	731.4
478.064	742.8
478.479	733.4
478.872	737.6
479.287	727.2
479.702	733.6
480.118	730.6
480.511	748
480.927	754
481.342	736.2
481.736	751.8
482.151	729
482.566	754.2
482.96	746.6
483.376	756.4
483.792	738.6
484.186	740
484.602	742.2
485.017	747.6
485.412	738.2
485.827	749.6
486.243	732.8
486.638	771.6
487.054	741.8
487.47	752.4
487.865	741.6
488.281	735.6
488.697	735.4
489.092	741.8
489.508	724
489.925	744
490.32	723
490.736	742
491.153	751.8
491.548	736
491.964	748.6
492.381	724
492.776	738.8
493.193	737.6
493.61	736.4
494.006	728.4
494.422	749.8
494.84	727.6
495.235	754.6
495.652	732
496.069	724.8
496.465	714.2
496.883	728.4
497.3	759
497.696	725.6
498.113	734.4
498.509	720.6
498.927	718.6
499.344	714.4
499.741	718.8
500.158	733
500.576	740
500.973	722.4
501.39	713
501.787	712
502.205	729.2
502.623	724.4
503.02	706.2
503.438	721.8
503.856	724.6
504.253	721.2
504.671	730.4
505.068	715.2
505.486	713.6
505.905	733.4
506.302	721.4
506.72	725.6
507.118	708.4
507.536	720.2
507.955	720.6
508.352	723.2
508.771	721.8
509.169	727.2
509.587	710.6
510.006	714.2
510.404	709.2
510.823	711
511.221	705.4
511.64	706
512.038	723.8
512.457	704
512.877	714.6
513.275	705.8
513.694	709.4
514.092	718
514.512	717.8
514.91	708.6
515.33	714.8
515.749	706.6
516.148	710
516.568	711
516.966	710.4
517.386	711.2
517.785	705.8
518.205	715
518.603	706.8
519.024	702.2
519.444	709.4
519.843	718.4
520.263	725.8
520.662	712.8
521.082	704
521.481	711.8
521.902	703
522.301	702
522.722	702.2
523.121	700
523.542	698.6
523.963	706.4
524.362	704.2
524.783	705.6
525.183	696.8
525.604	707.2
526.003	694.8
526.425	694.6
526.824	706.6
527.246	710.4
527.646	709.2
528.067	695.2
528.467	703.6
528.888	709.4
529.289	706.2
529.71	709.4
530.11	694.6
530.532	699.2
530.932	688.2
531.354	686.4
531.755	740.8
532.176	696.8
532.577	693
532.999	692.2
533.4	695
533.822	700.2
534.223	701.2
534.645	687.6
535.046	698.8
535.468	695.4
535.869	707.8
536.292	691.6
536.693	741.2
537.115	691.6
537.516	687
537.939	695.4
538.34	712.6
538.742	712.6
539.165	699
539.566	686.8
539.989	691.2
540.391	679.4
540.814	698.8
541.216	693.6
541.639	690.6
542.041	699.2
542.464	691.8
542.866	690.2
543.268	687.2
543.691	689
544.093	695
544.517	705.8
544.919	673.8
545.343	720.4
545.745	683.8
546.147	688.8
546.571	674.4
546.974	672.4
547.398	690.4
547.8	711.8
548.224	687.4
548.627	683.4
549.03	693
549.454	682
549.857	675.6
550.281	689
550.684	684
551.087	698
551.512	687.2
551.915	693.8
552.34	689.2
552.743	677.8
553.146	685.8
553.571	687.6
553.975	705.8
554.399	669.4
554.803	733
555.207	677.8
555.632	671.4
556.036	684.2
556.461	674.2
556.865	691.6
557.268	671
557.694	681.8
558.098	688
558.502	692.6
558.927	678.4
559.332	686.4
559.736	690.4
560.162	683.6
560.566	680.4
560.992	693.6
561.396	681.6
561.801	681.4
562.227	686.4
562.631	677.2
563.036	678.8
563.462	696
563.867	681.8
564.272	670
564.698	687.8
565.103	673.8
565.508	699.6
565.935	675.8
566.34	682.4
566.745	701
567.172	676
567.577	702
567.982	697.6
568.409	683.8
568.815	674.8
569.22	687.4
569.626	690.2
570.053	664
570.459	687
570.865	684.4
571.292	685.8
571.698	686
572.104	660.4
572.531	668.6
572.937	691.8
573.343	679
573.75	671.6
574.177	674
574.583	689.4
574.99	678.2
575.396	677.2
575.824	675.4
576.231	674.2
576.637	664
577.065	708.8
577.472	672.2
577.879	674
578.286	689.4
578.714	673.2
579.121	670.2
579.528	675
579.935	687.2
580.364	676.6
580.771	667.2
581.178	674.2
581.585	681.8
582.014	672.6
582.421	670.6
582.829	672.2
583.236	676.2
583.644	666.6
584.073	674.8
584.481	670.2
584.889	664.8
585.296	676.4
585.726	677.4
586.134	668.4
586.542	667.4
586.95	685.8
587.358	655.2
587.787	681
588.196	652.4
588.604	672.6
589.012	676.6
589.421	665.6
589.851	670
590.259	675.2
590.668	665.8
591.076	710
591.485	661.4
591.894	675.6
592.324	693
592.733	689.8
593.142	660.4
593.551	670.4
593.96	671.6
594.369	654
594.8	663
595.209	676.6
595.618	656.8
596.028	665.6
596.437	659.8
596.847	660.6
597.256	675.6
597.687	669.6
598.097	676.4
598.507	664.6
598.917	675.6
599.327	680.8
599.736	677.8
600.146	684.4
600.556	678.8
600.988	685
601.398	675.4
601.808	681.6
602.219	664.6
602.629	672.2
603.039	671
603.45	700.8
603.86	671
604.271	687.2
604.703	674.4
605.114	672
605.525	678.8
605.935	671.6
606.346	692.4
606.757	668.8
607.168	656.4
607.579	660.8
607.99	683.8
608.402	679.2
608.813	689
609.224	669.6
609.636	661.8
610.047	661.4
610.48	671.8
610.892	675.4
611.303	684.4
611.715	663.8
612.127	662.6
612.539	667.6
612.95	670.4
613.362	662.2
613.774	655.2
614.186	658.8
614.599	664
615.011	677.8
615.423	664
615.835	664
616.248	658.6
616.66	680.2
617.073	654.8
617.485	664.4
617.898	681.8
618.311	663.2
618.723	665.4
619.136	701
619.549	677.8
619.962	699.2
620.375	666
620.788	680.4
621.201	664
621.614	675.8
622.028	670.8
622.441	663.6
622.854	680
623.268	658.2
623.681	677
624.095	669.4
624.509	679.4
624.922	673.6
625.336	658.2
625.728	674.4
626.142	683
626.556	693
626.97	675
627.384	668.8
627.799	670.4
628.213	682.2
628.627	677.4
629.041	665.8
629.456	665.4
629.87	670.4
630.285	676.6
630.699	674.8
631.093	677.6
631.507	668.2
631.922	674.6
632.337	690
632.752	668.6
633.167	670.6
633.582	659.2
633.997	672.8
634.412	662.6
634.806	660.2
635.221	657.2
635.637	685
636.052	656.4
636.468	664.8
636.883	691
637.299	665.2
637.715	648.6
638.109	668.2
638.525	648.8
638.941	678
639.357	674.8
639.773	677.6
640.189	664.4
640.584	666.4
641	665.6
641.416	660.4
641.832	656.4
642.249	674
642.665	664.6
643.06	670.6
643.477	668.6
643.894	648.2
644.31	664.6
644.727	666.4
645.123	671.2
645.54	655.6
645.957	668.2
646.374	689
646.77	670.8
647.187	693
647.604	663.2
648.021	645.8
648.439	652.8
648.835	669.6
649.252	664.8
649.67	667.6
650.088	666.6
650.484	660.2
650.902	671.4
651.32	671.6
651.738	670.8
652.134	668.8
652.552	687.4
652.971	672.2
653.389	666
653.786	686
654.204	682.2
654.622	656.4
655.019	664.2
655.438	667.6
655.857	660.4
656.275	662.4
656.673	659.2
657.091	751
657.51	659.8
657.908	682
658.327	682.2
658.746	651.4
659.144	669.8
659.563	671.8
659.982	675.8
660.38	656.6
660.8	660.6
661.219	676.2
661.617	668.8
662.037	670.4
662.457	681.8
662.855	650.6
663.275	691.6
663.695	679.6
664.094	672.2
664.514	666.2
664.934	656.8
665.333	682.2
665.753	652
666.152	660.4
666.572	658.6
666.993	682.8
667.392	657.2
667.812	661.4
668.212	669.4
668.632	677.2
669.053	654.6
669.453	673.4
669.874	672
670.273	679.8
670.694	660.6
671.116	679.4
671.515	677.8
671.937	662.8
672.337	666.4
672.758	671.2
673.158	673.8
673.58	661.4
673.98	670.2
674.402	677.8
674.824	662.2
675.224	668
675.646	653.6
676.047	657.8
676.469	672.8
676.869	665.6
677.292	664
677.693	655.6
678.115	662.2
678.516	667.4
678.939	667.4
679.34	665.8
679.762	674.8
680.164	677.2
680.586	656.6
680.988	666.8
681.411	696.2
681.812	661.8
682.236	657.4
682.637	660.6
683.061	648.8
683.462	673.2
683.864	660.6
684.288	674
684.69	654.2
685.114	679.6
685.516	680.8
685.94	650.6
686.342	676.2
686.766	654.4
687.168	658.4
687.571	681
687.995	665.4
688.398	654
688.822	661.8
689.225	676
689.628	686.4
690.052	662.4
690.456	673.2
690.88	668.4
691.284	662.2
691.687	666.8
692.112	653.8
692.515	654.8
692.919	661.8
693.344	661.8
693.747	664.8
694.173	652.4
694.577	669
694.98	657.6
695.406	659.6
695.81	665.8
696.214	670
696.64	659.4
697.044	662
697.448	672
697.874	669.2
698.279	663.8
698.684	660
699.11	657.6
699.514	672.2
699.919	663.8
700.324	656.4
700.75	661.6
701.156	669.6
701.561	668
701.987	671.8
702.393	676.6
702.798	677.4
703.203	665.4
703.63	655
704.036	659.2
704.442	668.8
704.847	661.4
705.274	668.8
705.68	669
706.086	680.8
706.492	650.2
706.92	663
707.326	674.2
707.732	662.2
708.139	654.4
708.545	651.6
708.973	664.8
709.38	659.6
709.786	651.8
710.193	682.6
710.6	666.8
711.028	648.4
711.435	662.4
711.842	659.2
712.249	662.2
712.656	661.6
713.064	675.8
713.492	661.8
713.9	658.4
714.307	662.6
714.715	668.6
715.123	668
715.53	666.2
715.938	669.4
716.367	656.2
716.775	655
717.184	659.4
717.592	653.4
718	675.4
718.408	695
718.816	718.8
719.225	665
719.633	667.2
720.042	657.4
720.472	654.8
720.881	682.4
721.29	666.2
721.699	654.8
722.108	666.8
722.517	658.8
722.926	660.4
723.335	678.4
723.744	658.2
724.154	666.6
724.563	665.6
724.973	670
725.382	671.4
725.792	653.6
726.202	649
726.612	697.8
727.022	669.6
727.432	658
779.813	657.8
780.223	707.4
780.634	661.8
781.044	657.6
781.454	662.4
781.865	682.6
782.276	655.4
782.686	677
783.097	666.8
783.508	662
783.919	665.6
784.33	676.4
784.741	677.6
785.152	653
785.563	652.6
785.974	655.4
786.386	671
786.776	661.6
787.188	659.6
787.599	651.6
788.011	671
788.423	668
788.835	655.4
789.247	662.4
789.659	657
790.071	661.2
790.483	712.6
790.874	658
791.286	673.6
791.699	666.6
792.111	663.8
792.524	668.8
792.937	655.4
793.349	657.2
793.741	659.2
794.154	651.4
794.567	682.8
794.98	664
795.393	644.8
795.785	681.6
796.198	658.4
796.612	671.6
797.026	657
797.439	639.8
797.831	661
798.245	654
798.659	659.6
799.073	654.6
799.487	654.8
799.88	667
800.294	666.2
800.708	659.8
801.123	669.2
801.516	677.2
801.93	643.4
802.345	638
802.76	666
803.153	677.2
803.568	670.6
803.983	663.6
804.377	661.8
804.792	651.6
805.207	648.8
805.601	653.6
806.016	692.6
806.432	658.2
806.826	693
807.242	675
807.658	670.6
808.052	660
808.468	656.2
808.884	650.4
809.279	657.2
809.695	672
810.111	677.2
810.506	656.2
810.922	682
811.339	663.2
811.734	664.8
812.151	650.2
812.546	657.8
812.963	655.4
813.38	663.2
813.776	661
814.193	681.8
814.589	653.2
815.006	652.2
815.402	657.4
815.82	655.2
816.237	662.6
816.633	661.2
817.051	638.8
817.448	666.8
817.866	655.2
818.262	676.6
818.68	656
819.077	660.2
819.495	668.4
819.892	713.4
820.311	659.6
820.708	663
821.127	646.4
821.524	670
821.943	664.2
822.34	675.2
822.759	660.8
823.157	662
823.576	672
823.974	680
824.393	796.6
824.791	662.6
825.189	653.6
825.609	659.2
826.007	662.4
826.427	648.6
826.826	648.4
827.246	663
827.644	638.2
828.043	667.4
828.463	656.6
828.862	667.6
829.261	668.4
829.682	659.4
830.081	671.6
830.502	654.2
830.901	662.2
831.301	649
831.722	648.2
832.121	655
832.521	656
832.943	652.8
833.342	665.4
833.742	646.8
834.164	653.8
834.564	644
834.965	651.6
835.386	660
835.787	652.4
836.188	655.8
836.588	657.2
837.01	650.2
837.411	643.6
837.812	663.4
838.213	666.4
838.636	645.4
839.037	739
839.438	669.4
839.84	656
840.263	669.4
840.664	663.6
841.066	652.6
841.468	663.4
841.891	655.2
842.293	670
842.695	656.8
843.098	672.6
843.5	653.8
843.902	666.2
844.326	651.2
844.729	661.6
845.131	673.6
845.534	670.2
845.937	682.4
846.34	676.6
846.764	656
847.167	666.2
847.571	649.4
847.974	650.8
848.377	649.2
848.781	709.8
849.184	666.4
849.588	660.4
849.992	652.6
850.396	658.2
850.821	686
851.225	664.6
851.63	652
852.034	663.8
852.438	655.8
852.843	815.2
853.247	643.2
853.652	655.2
854.057	679.2
854.462	661.4
854.867	661.2
855.272	696
855.677	664.8
856.082	653.2
