#lambda/nm	C1
208.295	552.4
208.67	492.6
209.045	454.6
209.419	454.6
209.794	689.4
210.169	683
210.544	812.6
210.919	702.6
211.295	680
211.67	693.6
212.045	687.2
212.421	681
212.796	731.2
213.172	685.2
213.547	682
213.923	684.8
214.299	680
214.675	692.4
215.051	692
215.427	700.8
215.803	712.6
216.179	686.4
216.555	687.2
216.932	702.2
217.308	689.6
217.684	694
218.061	685.8
218.438	692.2
218.814	685
219.191	695.4
219.568	681.8
219.945	686.6
220.322	698.2
220.699	707.2
221.076	701.4
221.453	692.6
221.83	683.4
222.208	682.4
222.585	692
222.962	690.2
223.34	702.2
223.717	694.4
224.095	694.4
224.473	689.4
224.851	682.6
225.229	676.4
225.607	719.2
225.985	681
226.363	687.2
226.741	688.2
227.119	684.4
227.497	704
227.876	668
228.254	690
228.633	698
229.011	693.8
229.39	692.2
229.769	695
230.148	699.6
230.527	718.6
230.905	691.2
231.284	687.6
231.664	679.6
232.043	702.8
232.422	694.8
232.801	690.4
233.181	695.6
233.56	688.4
233.94	685.8
234.319	671.8
234.699	692.6
235.079	736.8
235.458	731.6
235.838	709.8
236.218	688.2
236.598	685.8
236.978	685
237.358	682.2
237.738	686.6
238.119	684.4
238.499	670.4
238.88	681.2
239.26	705.8
239.641	675
240.021	679.8
240.402	681.6
240.783	684.4
241.163	691.8
241.544	686.4
241.925	688.8
242.306	703.4
242.687	684
243.069	693.4
243.45	692.4
243.831	681
244.212	685.6
244.594	735
244.975	695.8
245.357	693.6
245.739	680.6
246.12	700.4
246.502	705.4
246.884	687
247.266	688.4
247.648	697.4
248.03	715.2
248.412	698.6
248.794	700.8
249.176	684.4
249.559	695.2
249.941	690.4
250.323	676.4
250.706	679.8
251.089	690.6
251.471	692.4
251.854	689.2
252.237	690.4
252.62	702
253.002	694.4
253.385	690.2
253.769	705.6
254.152	689.4
254.535	692.8
254.918	677.6
255.301	692.6
255.685	687.6
256.068	688.2
256.452	728.4
256.835	703.6
257.219	702.8
257.603	709.6
257.986	682
258.37	704.2
258.754	682.4
259.138	698.4
259.522	703.8
259.906	698.4
260.29	698.6
260.675	694
261.059	695.8
261.443	682
261.828	696.6
262.212	702
262.597	680.4
262.981	679.4
263.366	699.6
263.751	696.4
264.136	686.2
264.521	696.2
264.906	681.6
265.291	698.4
265.676	687
266.061	700.6
266.446	716.4
266.831	686.4
267.217	709.6
267.602	697.2
267.987	701.8
268.373	692.2
268.759	709
269.144	695.2
269.53	698.8
269.916	688.4
270.302	683.6
270.688	698.4
271.074	685.4
271.46	700.2
271.846	723.2
272.232	688.2
272.618	682.4
273.004	682.8
273.391	706.2
273.777	712
274.164	699.4
274.55	698.6
274.937	689
275.324	684.8
275.71	694.4
276.097	691.2
276.484	672
276.871	694.2
277.258	691.8
277.645	675.8
278.032	697.2
278.419	686.8
278.807	693.4
279.194	678.6
279.581	683.6
279.969	706.4
280.356	696.6
280.744	693.8
281.131	717
281.519	703.2
281.907	686.8
282.295	683.2
282.682	706.2
283.07	697
283.458	704.6
283.846	711.2
284.235	701.2
284.623	704.4
285.011	683.8
285.399	689.8
285.788	702.2
286.176	680
286.565	712.8
286.953	681.4
287.342	688
287.731	687.6
288.119	679.2
288.508	687
288.897	685.6
289.286	680.6
289.675	690
290.064	713.6
290.453	692.2
290.821	690.4
291.21	706.6
291.599	688
291.989	691.6
292.378	696.4
292.768	718.6
293.157	701.2
293.547	705.6
293.936	694.2
294.326	685
294.716	698.8
295.106	691.4
295.496	705.4
295.886	703.4
296.276	692.8
296.666	689.8
297.056	694.2
297.446	679
297.836	710.8
298.227	694.2
298.617	692.8
299.008	710.6
299.398	689.6
299.789	683.6
300.179	698.2
300.57	711
300.961	687.8
301.352	699.8
301.742	704.8
302.133	693
302.524	689.8
302.915	698.6
303.307	690.6
303.698	709
304.089	694.8
304.48	694.6
304.872	700.4
305.263	689.4
305.655	685.4
306.046	693.2
306.438	696.6
306.829	690.4
307.221	710.6
307.613	704.6
308.005	702.6
308.397	710
308.789	725.6
309.181	725.2
309.573	718
309.965	717.6
310.357	697
310.749	709.4
311.142	691.6
311.534	696.4
311.926	697.6
312.319	700.2
312.711	691.4
313.104	705.4
313.497	691
313.889	733
314.282	705.6
314.675	727.2
315.068	697.4
315.461	708.6
315.854	729.6
316.247	704.8
316.64	694.2
317.033	699
317.405	704.6
317.798	686
318.192	702.8
318.585	676.4
318.979	698.8
319.372	688.2
319.766	689.8
320.16	709
320.553	713.6
320.947	718
321.341	698.6
321.735	694.6
322.129	677.4
322.523	716.4
322.917	689.4
323.311	710.2
323.705	699
324.099	705.8
324.494	712.2
324.888	703.6
325.282	701.4
325.677	710.8
326.071	710.6
326.466	706.4
326.861	700.2
327.255	711.8
327.65	706
328.045	721
328.44	691.8
328.835	700.2
329.23	693.6
329.625	726.6
330.02	689.2
330.415	717
330.81	697.4
331.206	695.8
331.601	694.8
331.996	699.2
332.37	715.8
332.766	679.4
333.161	722.8
333.557	691.2
333.953	697
334.348	1133
334.744	695.4
335.14	682.6
335.536	693.2
335.932	702.6
336.328	696.6
336.724	698.2
337.12	698.8
337.516	700.4
337.913	701.2
338.309	713.2
338.705	703.4
339.102	701.2
339.498	698.2
339.895	714
340.291	691.6
340.688	706.6
341.085	686.6
341.481	688.4
341.878	701.4
342.275	722.8
342.672	689.8
343.069	683.6
343.466	677.8
343.842	705.4
344.239	679.8
344.636	692.8
345.033	674.6
345.431	680.6
345.828	697.8
346.225	680.4
346.623	725.6
347.02	684.2
347.418	696.2
347.816	711.2
348.213	672.8
348.611	695
349.009	681
349.407	698.8
349.805	684.6
350.203	679.4
350.601	706.8
350.999	690.8
351.397	748.2
351.795	697.8
352.193	695.6
352.57	697.2
352.969	710.6
353.367	687.2
353.766	675.8
354.164	690.6
354.563	701.2
354.961	687.4
355.36	694.6
355.759	681.2
356.158	688.4
356.557	677
356.956	684.6
357.355	681
357.754	693.2
358.153	693.8
358.552	730.2
358.951	691.2
359.35	702.6
359.75	680.4
360.149	687.4
360.527	668
360.926	683.6
361.326	691.4
361.726	687.8
362.125	675.8
362.525	697.6
362.925	686.2
363.325	695.2
363.724	684.2
364.124	682.6
364.524	679
364.924	687
365.324	697.8
365.725	682.8
366.125	692.4
366.525	682.2
366.904	666.4
367.304	673.4
367.705	699.6
368.105	701.6
368.506	686.6
368.906	687.6
369.307	689.8
369.708	692.6
370.108	675.8
370.509	705
370.91	690.8
371.311	690.4
371.712	695.2
372.113	684.6
372.514	676.4
372.894	688.4
373.295	684.8
373.696	702.4
374.097	694.6
374.499	720
374.9	687.4
375.301	668.6
375.703	687.8
376.105	677.4
376.506	695.8
376.908	685.6
377.309	687.8
377.711	690
378.113	679
378.493	683
378.895	680.4
379.297	692.6
379.699	669.4
380.102	691.4
380.504	689.4
380.906	679.8
381.308	705.8
381.71	681.8
382.113	695.6
382.515	681
382.918	687.2
383.299	672.2
383.701	690.6
384.104	690.2
384.507	661.6
384.909	689.6
385.312	669
385.715	675.8
386.118	683.8
386.521	671
386.924	691
387.327	681.4
387.709	660.6
388.112	670.4
388.515	679.8
388.918	682.2
389.322	692.8
389.725	675.2
390.129	713.8
390.532	691.2
390.936	686.6
391.339	676.2
391.743	692.4
392.125	679.6
392.529	689.2
392.933	697
393.337	683.6
393.74	689.8
394.144	685
394.548	678.2
394.953	684.4
395.357	697.2
395.761	684
396.144	687.6
396.548	690.4
396.952	680.2
397.357	688.8
397.761	678.4
398.166	679.2
398.57	679.4
398.975	667.8
399.379	685.4
399.763	741.8
400.168	689.4
400.572	680.6
400.977	684
401.382	705.6
401.787	689.8
402.192	699.8
402.597	707.6
403.002	670.4
403.386	705
403.791	711.2
404.197	680.4
404.602	692.4
405.007	685.6
405.413	684.8
405.818	683.8
406.224	677.8
406.608	677.4
407.014	681.4
407.42	706
407.825	686.4
408.231	699
408.637	685
409.043	700.4
409.449	676.4
409.834	678.6
410.24	692.8
410.646	703
411.052	698.8
411.458	688.6
411.865	693.8
412.271	696.4
412.677	687.4
413.062	702.4
413.469	673
413.875	723.4
414.282	702
414.689	688.2
415.095	695.6
415.502	679.4
415.888	688.4
416.294	672.8
416.701	736
417.108	685.4
417.515	699
417.923	687.4
418.33	711.6
418.715	701.4
419.123	684.2
419.53	684
419.937	688.6
420.345	703.8
420.752	682.4
421.16	701.2
421.546	681.6
421.953	698
422.361	672.6
422.769	693.8
423.177	679.8
423.585	707.8
423.992	708.4
424.379	707.2
424.787	697.2
425.195	715
425.603	691.2
426.011	711.8
426.419	708.2
426.806	689.4
427.214	695.2
427.623	709.2
428.031	712
428.44	697.6
428.848	709.4
429.235	708
429.644	697.2
430.053	686.6
430.461	710
430.87	721.2
431.279	707
431.666	683.4
432.075	697.2
432.484	710.4
432.893	694.2
433.302	714.6
433.711	756.2
434.099	700.4
434.508	688.2
434.918	681.6
435.327	706.8
435.737	702.8
436.125	702
436.534	704.2
436.944	707
437.353	708.2
437.763	722.4
438.173	700.6
438.561	724
438.971	690
439.381	707.2
439.791	714.8
440.201	686.4
440.589	719.6
440.999	727.6
441.409	719.8
441.819	708.2
442.23	730
442.619	726.8
443.029	720
443.439	720.2
443.85	736.4
444.26	739.4
444.649	733
445.06	738.2
445.471	726.4
445.881	730.2
446.292	745.4
446.682	750
447.092	705.4
447.503	788.4
447.914	734.2
448.325	727.8
448.715	722.6
449.126	717.8
449.537	729.6
449.948	721.6
450.338	733.8
450.75	735.8
451.161	724.4
451.572	742.8
451.984	726.2
452.374	713.4
452.786	742
453.197	745.2
453.609	740.2
453.999	719.6
454.411	718.2
454.823	759
455.235	737.2
455.647	731
456.037	740.4
456.449	715.2
456.862	742.8
457.274	743.8
457.665	730.4
458.077	743.4
458.489	777.6
458.902	733
459.293	736.4
459.705	743
460.118	731.8
460.53	748.6
460.921	733.2
461.334	738.4
461.747	750.4
462.16	759.6
462.551	751.6
462.964	749
463.377	725.2
463.79	733.8
464.182	751.6
464.595	730.6
465.008	747.4
465.421	749.6
465.813	737.8
466.226	750.6
466.64	729.8
467.053	793.8
467.445	749.6
467.859	753.2
468.272	746.6
468.686	758.8
469.078	740
469.492	720.8
469.906	741.6
470.298	748.8
470.712	725.6
471.126	805.6
471.54	736
471.933	732.6
472.347	742.4
472.761	740.4
473.175	729.6
473.568	732.8
473.982	734.4
474.397	734.6
474.79	737.4
475.204	754.2
475.619	741
476.033	743.4
476.426	740.8
476.841	726
477.256	761.6
477.649	725.4
478.064	734.4
478.479	728.8
478.872	727
479.287	714.2
479.702	735.2
480.118	736.4
480.511	735.2
480.927	732
481.342	724.2
481.736	735.6
482.151	728.4
482.566	745.2
482.96	735.2
483.376	747.6
483.792	725
484.186	733.8
484.602	723.4
485.017	734.2
485.412	735.8
485.827	723.6
486.243	734.4
486.638	759.2
487.054	732.8
487.47	751
487.865	726.2
488.281	726.4
488.697	722.8
489.092	730.4
489.508	714.4
489.925	739
490.32	718.2
490.736	730.6
491.153	733.2
491.548	735.2
491.964	732.8
492.381	709.4
492.776	726.8
493.193	727.2
493.61	734.4
494.006	726.8
494.422	727.4
494.84	716
495.235	735.8
495.652	725.4
496.069	715.8
496.465	710.4
496.883	720.2
497.3	748.4
497.696	709.6
498.113	722.8
498.509	704.8
498.927	709.6
499.344	714.8
499.741	718.8
500.158	725.6
500.576	726.6
500.973	720
501.39	713.2
501.787	711.2
502.205	730.2
502.623	710.6
503.02	711.2
503.438	704.4
503.856	706.2
504.253	721.2
504.671	712
505.068	700.6
505.486	710
505.905	727.2
506.302	714.8
506.72	727.6
507.118	700
507.536	719.6
507.955	711.2
508.352	718.4
508.771	718.8
509.169	721.2
509.587	703.6
510.006	712.8
510.404	697.2
510.823	702.4
511.221	704.4
511.64	704
512.038	722.2
512.457	704.2
512.877	693.2
513.275	685.8
513.694	710.6
514.092	708.8
514.512	715.4
514.91	698.6
515.33	708.6
515.749	701
516.148	701.8
516.568	709.8
516.966	707.6
517.386	696
517.785	709
518.205	699.8
518.603	700.2
519.024	696.8
519.444	707.6
519.843	713.6
520.263	722.2
520.662	703.4
521.082	706.2
521.481	701.6
521.902	698.2
522.301	710.4
522.722	705.4
523.121	696
523.542	695.4
523.963	705.4
524.362	693.8
524.783	703.6
525.183	691.6
525.604	698.8
526.003	687.6
526.425	680.4
526.824	704
527.246	703.2
527.646	705.6
528.067	694.8
528.467	696.4
528.888	707.6
529.289	697
529.71	693.6
530.11	689.8
530.532	696.6
530.932	680.2
531.354	678.2
531.755	732.4
532.176	706.6
532.577	678.4
532.999	703.4
533.4	690.6
533.822	709.6
534.223	692.4
534.645	688.4
535.046	691.8
535.468	705.6
535.869	705.6
536.292	688.2
536.693	732.8
537.115	700
537.516	682
537.939	687.4
538.34	708.8
538.742	698
539.165	692
539.566	687.4
539.989	692.8
540.391	688.8
540.814	680.2
541.216	688.6
541.639	684.2
542.041	696.6
542.464	691.8
542.866	679.8
543.268	678.8
543.691	700.2
544.093	698
544.517	711.6
544.919	685.8
545.343	712
545.745	684
546.147	692.6
546.571	675.2
546.974	680
547.398	698.8
547.8	698.6
548.224	680
548.627	680.4
549.03	690.8
549.454	685.6
549.857	668.8
550.281	669.8
550.684	676
551.087	700
551.512	690.2
551.915	678.6
552.34	671.8
552.743	670.4
553.146	682.2
553.571	681
553.975	698
554.399	677
554.803	729.8
555.207	667.4
555.632	668
556.036	686.2
556.461	676.4
556.865	681
557.268	676
557.694	678.8
558.098	683.4
558.502	684.6
558.927	671.2
559.332	681.6
559.736	677.8
560.162	697.2
560.566	681.4
560.992	688.2
561.396	688.6
561.801	687.2
562.227	681.8
562.631	679
563.036	676.6
563.462	696.8
563.867	685.2
564.272	665.4
564.698	682.4
565.103	671
565.508	700.8
565.935	683
566.34	676.4
566.745	690
567.172	685.6
567.577	700.6
567.982	689.4
568.409	690.4
568.815	669
569.22	681.8
569.626	688.2
570.053	672
570.459	682.4
570.865	672.8
571.292	688.4
571.698	685.8
572.104	661
572.531	674
572.937	682.8
573.343	674.6
573.75	682
574.177	683.8
574.583	686
574.99	678
575.396	683
575.824	687
576.231	692.6
576.637	669.6
577.065	709.2
577.472	679.2
577.879	690
578.286	693.2
578.714	663.8
579.121	672
579.528	685.2
579.935	682.8
580.364	674
580.771	657.6
581.178	663.4
581.585	680.2
582.014	685.2
582.421	666
582.829	674.6
583.236	680.4
583.644	666.2
584.073	670.8
584.481	674.8
584.889	664
585.296	677.2
585.726	670
586.134	662.4
586.542	664.2
586.95	686.6
587.358	660.4
587.787	672.2
588.196	660.6
588.604	675.6
589.012	665
589.421	662.4
589.851	676.8
590.259	676.8
590.668	668.2
591.076	708.2
591.485	669
591.894	675
592.324	677.6
592.733	684.8
593.142	658
593.551	661.6
593.96	717.6
594.369	665.8
594.8	667.8
595.209	686
595.618	654.6
596.028	669.8
596.437	664.6
596.847	680.4
597.256	671
597.687	674.2
598.097	683.2
598.507	657.2
598.917	676.6
599.327	679.2
599.736	674.2
600.146	678.6
600.556	679.4
600.988	680.6
601.398	673.4
601.808	687
602.219	668.4
602.629	666.8
603.039	677
603.45	701
603.86	672.4
604.271	688.2
604.703	674
605.114	671.2
605.525	676
605.935	674
606.346	689
606.757	684.4
607.168	673.6
607.579	674.4
607.99	687.2
608.402	675.4
608.813	671.4
609.224	662.8
609.636	658.4
610.047	663.8
610.48	668.8
610.892	681.4
611.303	683
611.715	679
612.127	667.4
612.539	667.6
612.95	668.8
613.362	654.2
613.774	654.6
614.186	664.6
614.599	665
615.011	682.8
615.423	674
615.835	662.4
616.248	660.4
616.66	680.6
617.073	662.4
617.485	668.8
617.898	687.4
618.311	669
618.723	667.2
619.136	702.4
619.549	688.2
619.962	704.8
620.375	666
620.788	675.6
621.201	666.4
621.614	676
622.028	669
622.441	666.6
622.854	675.4
623.268	658
623.681	680
624.095	669.6
624.509	684.8
624.922	679.4
625.336	657
625.728	668.6
626.142	680
626.556	691.4
626.97	679
627.384	669.8
627.799	661
628.213	681
628.627	670
629.041	665.4
629.456	662.2
629.87	665.6
630.285	671.2
630.699	683.2
631.093	662.4
631.507	683
631.922	674.4
632.337	686.4
632.752	647.4
633.167	669.4
633.582	660.6
633.997	664.4
634.412	660.8
634.806	673.6
635.221	657.6
635.637	683.8
636.052	654.8
636.468	672.8
636.883	693
637.299	673.8
637.715	659.2
638.109	675.8
638.525	658.8
638.941	682.4
639.357	678.6
639.773	684.6
640.189	665
640.584	672.6
641	676.6
641.416	655.8
641.832	662.8
642.249	663.4
642.665	662.4
643.06	677.2
643.477	671.8
643.894	649
644.31	664.8
644.727	672
645.123	667.8
645.54	652.6
645.957	669.2
646.374	691
646.77	667
647.187	706
647.604	659.4
648.021	652.8
648.439	661.4
648.835	679
649.252	667.4
649.67	664.6
650.088	660.6
650.484	675.8
650.902	669.4
651.32	675
651.738	666.4
652.134	669.4
652.552	688.8
652.971	675.6
653.389	667.4
653.786	689.2
654.204	694.2
654.622	666.2
655.019	666.2
655.438	658.4
655.857	669.8
656.275	666.4
656.673	656.4
657.091	746.8
657.51	667
657.908	673.6
658.327	677.4
658.746	652.6
659.144	669.6
659.563	680.4
659.982	662.6
660.38	655.6
660.8	668.6
661.219	685.6
661.617	682.8
662.037	658
662.457	684
662.855	644.4
663.275	695.6
663.695	671.6
664.094	662.2
664.514	666.6
664.934	653.6
665.333	678.4
665.753	656.2
666.152	656
666.572	663.6
666.993	683.6
667.392	660.8
667.812	677.8
668.212	664.2
668.632	691.2
669.053	664.6
669.453	668.6
669.874	661.8
670.273	661.6
670.694	658.6
671.116	683
671.515	681.4
671.937	668.6
672.337	661.8
672.758	659.8
673.158	669.4
673.58	655.4
673.98	671.6
674.402	684.4
674.824	669.4
675.224	662.4
675.646	662.6
676.047	671.2
676.469	664.4
676.869	670.2
677.292	672.4
677.693	665.6
678.115	663.8
678.516	677.2
678.939	671.8
679.34	659.8
679.762	679.4
680.164	666.2
680.586	654.4
680.988	666.6
681.411	691
681.812	663.2
682.236	654
682.637	659
683.061	645.8
683.462	671.8
683.864	667.6
684.288	664.4
684.69	652.4
685.114	674.4
685.516	685.4
685.94	662.6
686.342	676.4
686.766	658.6
687.168	661.4
687.571	687.2
687.995	669
688.398	651.2
688.822	658.4
689.225	679.8
689.628	684
690.052	660.6
690.456	666.2
690.88	662.2
691.284	658.8
691.687	663.4
692.112	655
692.515	655
692.919	667.6
693.344	662.2
693.747	665
694.173	652.2
694.577	674.4
694.98	664
695.406	667
695.81	672.8
696.214	668.2
696.64	664.6
697.044	673.4
697.448	674
697.874	669
698.279	661.2
698.684	657.4
699.11	667.6
699.514	667.6
699.919	659.6
700.324	658
700.75	672.2
701.156	663.8
701.561	675.4
701.987	673.4
702.393	672.6
702.798	680.8
703.203	667.4
703.63	661.8
704.036	663.8
704.442	670.2
704.847	654
705.274	670.4
705.68	673.8
706.086	678
706.492	659.2
706.92	672.4
707.326	665.6
707.732	663.2
708.139	656.6
708.545	654
708.973	659.4
709.38	669
709.786	652.4
710.193	669
710.6	660.8
711.028	663.6
711.435	655.4
711.842	668.2
712.249	668.2
712.656	673
713.064	674.2
713.492	655.2
713.9	664.8
714.307	670.2
714.715	666.6
715.123	667.2
715.53	662
715.938	673.4
716.367	669.8
716.775	660.6
717.184	662.4
717.592	674.2
718	682.2
718.408	702.6
718.816	708.6
719.225	675.4
719.633	662.8
720.042	662.4
720.472	668.8
720.881	692.4
721.29	666
721.699	651
722.108	675.4
722.517	670.8
722.926	672.2
723.335	671.4
723.744	664.8
724.154	667.8
724.563	665.4
724.973	671
725.382	669
725.792	656.8
726.202	659.4
726.612	695.2
727.022	662.2
727.432	655.2
779.813	658
780.223	704
780.634	667
781.044	663.2
781.454	663.2
781.865	676
782.276	656.6
782.686	671.6
783.097	657.4
783.508	656.8
783.919	663.4
784.33	681.8
784.741	669
785.152	652.4
785.563	644
785.974	661.4
786.386	674.6
786.776	665
787.188	656.6
787.599	652.6
788.011	674.2
788.423	664.6
788.835	660.4
789.247	651.2
789.659	661
790.071	664
790.483	705.2
790.874	671.4
791.286	677.8
791.699	666.8
792.111	667.8
792.524	674.2
792.937	663.4
793.349	653.8
793.741	651.8
794.154	661
794.567	683.2
794.98	667.6
795.393	651.6
795.785	682
796.198	655.8
796.612	661.2
797.026	659
797.439	636
797.831	658.2
798.245	655.8
798.659	664.8
799.073	662
799.487	647.2
799.88	652.6
800.294	660.4
800.708	671.2
801.123	665
801.516	687.6
801.93	651.8
802.345	649.6
802.76	664.6
803.153	671.2
803.568	681.2
803.983	664.4
804.377	666.2
804.792	649.6
805.207	641.6
805.601	671.6
806.016	703.2
806.432	663.4
806.826	687
807.242	677
807.658	671.4
808.052	656.2
808.468	659.8
808.884	652.4
809.279	661
809.695	674
810.111	682.4
810.506	661.4
810.922	672.6
811.339	653.8
811.734	670.4
812.151	655
812.546	651
812.963	647.2
813.38	667.6
813.776	653.2
814.193	683.8
814.589	651
815.006	658
815.402	656
815.82	646.8
816.237	664.6
816.633	661.4
817.051	658.6
817.448	663
817.866	652.4
818.262	691.2
818.68	649.8
819.077	659
819.495	648.6
819.892	702.4
820.311	658.4
820.708	661.2
821.127	655.2
821.524	679.2
821.943	675.4
822.34	688
822.759	671
823.157	656.8
823.576	680.6
823.974	673.6
824.393	801.6
824.791	663.4
825.189	650
825.609	654.6
826.007	656.8
826.427	646.8
826.826	658
827.246	668.6
827.644	649.2
828.043	669.4
828.463	654.6
828.862	663.4
829.261	668
829.682	653
830.081	673.4
830.502	643.8
830.901	674.4
831.301	661.8
831.722	648.6
832.121	655
832.521	655.6
832.943	663.2
833.342	665.8
833.742	653.4
834.164	662.6
834.564	647.8
834.965	664.2
835.386	663.6
835.787	650.4
836.188	660.8
836.588	660.2
837.01	663.6
837.411	656.4
837.812	671.4
838.213	663.2
838.636	657.4
839.037	737.4
839.438	663.6
839.84	669
840.263	669.2
840.664	669.2
841.066	658.8
841.468	665.2
841.891	655
842.293	666.6
842.695	658.4
843.098	666.6
843.5	652.4
843.902	663.8
844.326	656.8
844.729	656.2
845.131	673.6
845.534	663.4
845.937	672.4
846.34	674.4
846.764	655.4
847.167	665.4
847.571	659.6
847.974	657.6
848.377	657
848.781	716
849.184	667.4
849.588	653.8
849.992	652
850.396	662.2
850.821	684.6
851.225	663.8
851.63	664.2
852.034	684.6
852.438	662.4
852.843	804.2
853.247	659.8
853.652	652.6
854.057	682.8
854.462	655.6
854.867	669
855.272	696.8
