#lambda/nm	C1
208.295	551.8
208.67	494.6
209.045	457.6
209.419	457.2
209.794	689
210.169	675.4
210.544	806.6
210.919	702.6
211.295	676.4
211.67	692.6
212.045	688
212.421	682.6
212.796	724.2
213.172	688.8
213.547	683.8
213.923	689.2
214.299	684.2
214.675	699.8
215.051	698.8
215.427	695.8
215.803	706.8
216.179	698.8
216.555	678.4
216.932	692.8
217.308	685.4
217.684	692.6
218.061	698.2
218.438	694
218.814	684.8
219.191	695.6
219.568	674.6
219.945	686.2
220.322	697.8
220.699	708
221.076	700
221.453	695.6
221.83	679
222.208	686.6
222.585	693.6
222.962	694.6
223.34	692
223.717	698.2
224.095	690.6
224.473	687
224.851	678.8
225.229	671
225.607	702.6
225.985	674.4
226.363	690
226.741	687.2
227.119	688.2
227.497	699
227.876	667.8
228.254	699.2
228.633	694.4
229.011	689.4
229.39	688.8
229.769	681.6
230.148	699.2
230.527	712.4
230.905	679.2
231.284	684.8
231.664	686.8
232.043	703.2
232.422	696
232.801	693.2
233.181	691.2
233.56	680.6
233.94	702.6
234.319	675.6
234.699	690.8
235.079	734.4
235.458	730
235.838	709.2
236.218	678.6
236.598	681.6
236.978	684.8
237.358	691.6
237.738	680
238.119	696.2
238.499	684.2
238.88	690
239.26	711
239.641	671.8
240.021	684.6
240.402	693.4
240.783	690.6
241.163	683.6
241.544	700.2
241.925	693.2
242.306	704.6
242.687	682.2
243.069	689.4
243.45	694
243.831	684
244.212	690.4
244.594	734
244.975	701.6
245.357	695.2
245.739	673.6
246.12	690.2
246.502	707.2
246.884	692
247.266	686
247.648	695.8
248.03	715
248.412	701.4
248.794	696.6
249.176	686.2
249.559	700.8
249.941	688.2
250.323	680.6
250.706	680.6
251.089	698.6
251.471	694.6
251.854	688.2
252.237	692.4
252.62	698.6
253.002	688.4
253.385	691.8
253.769	701.2
254.152	692.6
254.535	696.8
254.918	679
255.301	685.8
255.685	686.4
256.068	683.2
256.452	719
256.835	701.8
257.219	684.6
257.603	716
257.986	676.6
258.37	695.6
258.754	675.2
259.138	693.4
259.522	703.8
259.906	693.8
260.29	698.8
260.675	695.2
261.059	698.6
261.443	682.2
261.828	703.8
262.212	699.6
262.597	675
262.981	696.4
263.366	699.6
263.751	691.2
264.136	683.6
264.521	683
264.906	684.6
265.291	710.8
265.676	679.8
266.061	699
266.446	702
266.831	690.6
267.217	712.8
267.602	691.2
267.987	695
268.373	689.2
268.759	702.2
269.144	698.8
269.53	692.8
269.916	681
270.302	685.4
270.688	695.8
271.074	692.6
271.46	699
271.846	733
272.232	684.6
272.618	685.8
273.004	681.6
273.391	705.2
273.777	710.2
274.164	698.6
274.55	712
274.937	697
275.324	695
275.71	698
276.097	695
276.484	685.6
276.871	699.4
277.258	699.2
277.645	683.8
278.032	689
278.419	682.2
278.807	694.6
279.194	674.6
279.581	685.8
279.969	693.2
280.356	698.8
280.744	692.8
281.131	722
281.519	698.4
281.907	677.6
282.295	688.8
282.682	695.6
283.07	693.8
283.458	694.4
283.846	703.2
284.235	702.6
284.623	697.4
285.011	680.2
285.399	692.4
285.788	702.2
286.176	674.2
286.565	700.2
286.953	673.2
287.342	684.2
287.731	690.8
288.119	684.4
288.508	684.2
288.897	684.8
289.286	670.8
289.675	687.4
290.064	703.2
290.453	688.6
290.821	694.2
291.21	700.2
291.599	682.2
291.989	688.8
292.378	700.8
292.768	706.6
293.157	689.6
293.547	701.2
293.936	695.2
294.326	690.2
294.716	702.8
295.106	689.8
295.496	692.6
295.886	707
296.276	701.6
296.666	684.8
297.056	688.8
297.446	678
297.836	716.2
298.227	698.4
298.617	690.2
299.008	711.8
299.398	688.4
299.789	690.4
300.179	696.2
300.57	707.4
300.961	694.4
301.352	685.6
301.742	702.4
302.133	695.6
302.524	690.2
302.915	697.4
303.307	685.2
303.698	709.4
304.089	711.6
304.48	700
304.872	694.8
305.263	696.6
305.655	696.2
306.046	702.8
306.438	697.6
306.829	694.8
307.221	698.4
307.613	702.8
308.005	702.4
308.397	700.4
308.789	716.6
309.181	723.4
309.573	717.2
309.965	706.6
310.357	695.6
310.749	706.4
311.142	687
311.534	694.8
311.926	703.2
312.319	694.8
312.711	691.4
313.104	717.6
313.497	689.8
313.889	737
314.282	706.4
314.675	721.8
315.068	706
315.461	702.8
315.854	726.6
316.247	705.8
316.64	698.6
317.033	695.8
317.405	706.6
317.798	684.4
318.192	693
318.585	688.6
318.979	706
319.372	696.2
319.766	691.4
320.16	701.2
320.553	724.2
320.947	716
321.341	691
321.735	695.4
322.129	680.6
322.523	720.6
322.917	686.4
323.311	724
323.705	704.6
324.099	704.4
324.494	709.2
324.888	716
325.282	690.2
325.677	712.2
326.071	698.6
326.466	707
326.861	710.2
327.255	705.2
327.65	714.2
328.045	711.8
328.44	685.4
328.835	695.2
329.23	683.2
329.625	720.4
330.02	684.4
330.415	709
330.81	698.2
331.206	695.8
331.601	688.2
331.996	701.8
332.37	711.6
332.766	684.4
333.161	722.4
333.557	693.8
333.953	693
334.348	1071.6
334.744	689.8
335.14	689.4
335.536	687.8
335.932	714.4
336.328	696.2
336.724	708.4
337.12	702.4
337.516	693.6
337.913	688.4
338.309	712.2
338.705	692
339.102	700.6
339.498	687.8
339.895	711.4
340.291	692.2
340.688	703.6
341.085	679.8
341.481	697.2
341.878	689.6
342.275	711.2
342.672	685.2
343.069	693.4
343.466	680.4
343.842	706
344.239	694.4
344.636	695.4
345.033	685
345.431	687
345.828	699.2
346.225	680
346.623	739.8
347.02	690.4
347.418	702.4
347.816	711.4
348.213	678
348.611	693.2
349.009	685.2
349.407	714
349.805	686.8
350.203	685.6
350.601	707.4
350.999	685.8
351.397	771.8
351.795	683.8
352.193	704
352.57	690.2
352.969	701.2
353.367	679.6
353.766	682.6
354.164	685.6
354.563	703.4
354.961	691.2
355.36	694.6
355.759	684.6
356.158	681.2
356.557	679.8
356.956	677
357.355	666.6
357.754	690.8
358.153	697.2
358.552	726.2
358.951	687.2
359.35	705.4
359.75	682.8
360.149	678.6
360.527	683.6
360.926	674.4
361.326	696.2
361.726	689.8
362.125	678
362.525	702.6
362.925	689.6
363.325	682.4
363.724	698.8
364.124	683.2
364.524	681.6
364.924	687.2
365.324	693.6
365.725	678.4
366.125	695.4
366.525	689
366.904	681
367.304	668.4
367.705	705.2
368.105	703.8
368.506	689.4
368.906	689.6
369.307	684
369.708	702.8
370.108	677.6
370.509	693.8
370.91	676.6
371.311	687.2
371.712	680.6
372.113	687.2
372.514	677.8
372.894	686.6
373.295	676.2
373.696	687.2
374.097	697.6
374.499	716.8
374.9	686.2
375.301	683.4
375.703	687.6
376.105	674.2
376.506	688.2
376.908	690
377.309	690.2
377.711	685.8
378.113	674.2
378.493	682.4
378.895	684.6
379.297	693.8
379.699	669.4
380.102	694.4
380.504	686.6
380.906	683.6
381.308	721.8
381.71	684.6
382.113	691.4
382.515	692.6
382.918	692.8
383.299	694
383.701	697
384.104	683.4
384.507	662.2
384.909	682.6
385.312	673.2
385.715	677.4
386.118	686.6
386.521	669.2
386.924	697.6
387.327	675.4
387.709	661.4
388.112	663
388.515	677.4
388.918	689.8
389.322	688.8
389.725	677.8
390.129	708.4
390.532	683.8
390.936	680
391.339	671.6
391.743	687
392.125	666
392.529	696.6
392.933	698.6
393.337	690.2
393.74	681.6
394.144	684
394.548	674.4
394.953	677
395.357	693.4
395.761	683.4
396.144	685.2
396.548	683.6
396.952	686.4
397.357	680.6
397.761	675.6
398.166	677.6
398.57	684.4
398.975	673.4
399.379	691.6
399.763	747.4
400.168	694.4
400.572	677.2
400.977	683.8
401.382	703.2
401.787	693.2
402.192	700.8
402.597	700.8
403.002	679.8
403.386	699.4
403.791	707.2
404.197	679.6
404.602	690.2
405.007	684
405.413	685
405.818	690.8
406.224	676
406.608	669.8
407.014	677.4
407.42	700.8
407.825	676.8
408.231	692.6
408.637	690
409.043	706.8
409.449	673.4
409.834	675.6
410.24	678.4
410.646	699.8
411.052	695.2
411.458	684
411.865	701.8
412.271	702.8
412.677	695.6
413.062	690.2
413.469	677.2
413.875	714.2
414.282	710.6
414.689	694.2
415.095	698.8
415.502	678.8
415.888	694
416.294	667.8
416.701	736.4
417.108	679.8
417.515	692.4
417.923	690.6
418.33	708
418.715	698.8
419.123	690.6
419.53	683
419.937	690.4
420.345	696.4
420.752	684.4
421.16	708.2
421.546	683.6
421.953	698.6
422.361	675.4
422.769	685.4
423.177	679.8
423.585	719.8
423.992	712
424.379	709
424.787	697.8
425.195	704.8
425.603	685.8
426.011	707
426.419	708.4
426.806	686.2
427.214	693.4
427.623	709.6
428.031	697.6
428.44	689.4
428.848	702.6
429.235	714.4
429.644	688.6
430.053	702.2
430.461	703.2
430.87	730.2
431.279	698
431.666	684
432.075	693.6
432.484	701
432.893	697.2
433.302	707
433.711	755.2
434.099	706.6
434.508	692.4
434.918	692.8
435.327	702.6
435.737	699.2
436.125	706.4
436.534	702.4
436.944	703.6
437.353	702.6
437.763	729
438.173	692.8
438.561	724
438.971	704.6
439.381	706.8
439.791	710.6
440.201	685.2
440.589	707.4
440.999	712.8
441.409	716.4
441.819	697.4
442.23	728.4
442.619	720.6
443.029	717.6
443.439	711
443.85	737.2
444.26	728.4
444.649	725.6
445.06	717.2
445.471	719.6
445.881	725.2
446.292	754
446.682	754.4
447.092	706.6
447.503	784
447.914	728
448.325	723
448.715	719.4
449.126	715.8
449.537	724.2
449.948	727.2
450.338	729.6
450.75	728.8
451.161	730.6
451.572	731.8
451.984	718.8
452.374	705
452.786	717
453.197	730
453.609	729.4
453.999	708.4
454.411	711.2
454.823	736.4
455.235	727
455.647	730.4
456.037	727.8
456.449	707
456.862	730.6
457.274	734
457.665	720.4
458.077	728.4
458.489	755.6
458.902	717.8
459.293	726.2
459.705	729.4
460.118	723
460.53	727.2
460.921	725.2
461.334	744.2
461.747	723.2
462.16	737
462.551	751.2
462.964	731
463.377	705.2
463.79	726
464.182	733.8
464.595	708.4
465.008	734.4
465.421	725.6
465.813	722
466.226	732.4
466.64	723.6
467.053	782.2
467.445	729.8
467.859	747.4
468.272	735.4
468.686	735.8
469.078	723
469.492	716.2
469.906	733.6
470.298	740.4
470.712	727
471.126	789.2
471.54	716.8
471.933	719.8
472.347	713
472.761	716
473.175	711.2
473.568	717.2
473.982	710
474.397	713.6
474.79	720
475.204	719
475.619	717.8
476.033	724.4
476.426	720.4
476.841	715.4
477.256	743.6
477.649	703.2
478.064	722.8
478.479	711.8
478.872	704.4
479.287	701.6
479.702	707.6
480.118	719.8
480.511	714.4
480.927	724
481.342	722.6
481.736	720.8
482.151	704.4
482.566	731.2
482.96	716.6
483.376	728
483.792	717.6
484.186	711.2
484.602	704.8
485.017	719.6
485.412	711.6
485.827	722.6
486.243	716.8
486.638	746
487.054	726
487.47	740
487.865	716.4
488.281	710
488.697	704
489.092	714.4
489.508	701.6
489.925	716.6
490.32	695
490.736	710.6
491.153	708.2
491.548	708.6
491.964	726.4
492.381	699
492.776	723.6
493.193	705
493.61	714.4
494.006	712
494.422	719.8
494.84	693.4
495.235	708.2
495.652	708.2
496.069	699.2
496.465	697.6
496.883	705.6
497.3	727.6
497.696	707.6
498.113	711.6
498.509	694.2
498.927	696.2
499.344	700.6
499.741	698.4
500.158	717
500.576	720.2
500.973	698.4
501.39	694.4
501.787	697
502.205	713.2
502.623	701
503.02	700
503.438	697.6
503.856	700.4
504.253	701.6
504.671	709.2
505.068	699
505.486	701.4
505.905	727.6
506.302	706.2
506.72	703.6
507.118	688.4
507.536	700.6
507.955	698.8
508.352	704
508.771	709.4
509.169	713
509.587	697.4
510.006	701
510.404	679.2
510.823	693.8
511.221	699
511.64	692.8
512.038	701.6
512.457	692.6
512.877	696
513.275	690.4
513.694	696.8
514.092	697.4
514.512	694.2
514.91	689.6
515.33	698
515.749	699.8
516.148	695.8
516.568	699.8
516.966	700.2
517.386	689.2
517.785	696.8
518.205	687.2
518.603	685.2
519.024	684.8
519.444	701.2
519.843	694.6
520.263	706.8
520.662	697.4
521.082	687
521.481	693
521.902	686.8
522.301	694
522.722	694
523.121	691.8
523.542	690
523.963	700.4
524.362	690
524.783	694.6
525.183	685.2
525.604	691.4
526.003	674
526.425	683.4
526.824	703.6
527.246	701.4
527.646	699.2
528.067	691.6
528.467	691.8
528.888	687.4
529.289	683.6
529.71	688
530.11	679.2
530.532	689
530.932	676.8
531.354	679
531.755	728.8
532.176	701.8
532.577	686
532.999	689
533.4	684.8
533.822	707.4
534.223	694
534.645	685.2
535.046	679.8
535.468	676.6
535.869	704.8
536.292	679
536.693	726.8
537.115	691.8
537.516	680.6
537.939	689.2
538.34	707.2
538.742	700.8
539.165	687
539.566	686.6
539.989	680
540.391	679.2
540.814	677
541.216	683
541.639	683.2
542.041	696.8
542.464	677
542.866	673.8
543.268	667.6
543.691	688
544.093	693.6
544.517	702.6
544.919	670.8
545.343	712
545.745	677.6
546.147	682
546.571	681.6
546.974	667.2
547.398	675.4
547.8	702.2
548.224	672.4
548.627	672
549.03	682.2
549.454	668
549.857	672.6
550.281	670.6
550.684	676.2
551.087	698.4
551.512	692
551.915	688.6
552.34	680.6
552.743	685.4
553.146	681
553.571	679.8
553.975	696.8
554.399	664.6
554.803	736.4
555.207	673.8
555.632	663
556.036	692.2
556.461	676.2
556.865	676.2
557.268	676.4
557.694	674.8
558.098	693.8
558.502	691
558.927	675.8
559.332	666.6
559.736	672.4
560.162	681.2
560.566	677.6
560.992	678.4
561.396	682.4
561.801	672.8
562.227	675.2
562.631	669.4
563.036	676.8
563.462	687.6
563.867	682
564.272	667.2
564.698	683.2
565.103	668.8
565.508	701.4
565.935	673
566.34	674
566.745	682.8
567.172	673.4
567.577	686.8
567.982	689.4
568.409	678.6
568.815	668
569.22	680
569.626	681.2
570.053	666.6
570.459	679
570.865	685.4
571.292	684
571.698	682.4
572.104	649.2
572.531	677.6
572.937	687.2
573.343	679.4
573.75	679
574.177	677.8
574.583	685.4
574.99	676.2
575.396	680.8
575.824	672.8
576.231	678.2
576.637	665.6
577.065	707
577.472	668.2
577.879	668.2
578.286	682.6
578.714	654
579.121	668.6
579.528	673.8
579.935	679.4
580.364	674.4
580.771	652.8
581.178	669
581.585	678.4
582.014	672.2
582.421	656.8
582.829	670.6
583.236	680
583.644	670.4
584.073	670.4
584.481	672.8
584.889	673.6
585.296	679
585.726	670.8
586.134	667.6
586.542	664.6
586.95	691.2
587.358	653.8
587.787	673
588.196	654.8
588.604	673.4
589.012	673.6
589.421	670.8
589.851	667.4
590.259	681.4
590.668	664.6
591.076	716.6
591.485	663.4
591.894	667
592.324	685.6
592.733	682.2
593.142	656
593.551	655.6
593.96	672
594.369	657.6
594.8	666.2
595.209	679
595.618	656.8
596.028	660
596.437	657
596.847	665
597.256	670.4
597.687	676.2
598.097	665
598.507	655.4
598.917	672.4
599.327	673.8
599.736	675.8
600.146	687.4
600.556	674.8
600.988	689.6
601.398	666.8
601.808	682.2
602.219	657.2
602.629	666.4
603.039	674.6
603.45	700.6
603.86	667.4
604.271	688.2
604.703	678.6
605.114	674.2
605.525	672.6
605.935	671.6
606.346	695.8
606.757	671
607.168	666.6
607.579	657.2
607.99	687.4
608.402	660.4
608.813	670.6
609.224	672
609.636	662.4
610.047	661.4
610.48	677
610.892	679.8
611.303	683.2
611.715	673.6
612.127	665
612.539	672.2
612.95	679.6
613.362	665.4
613.774	651.4
614.186	666.6
614.599	660.4
615.011	688.4
615.423	668
615.835	663.4
616.248	659.4
616.66	673.2
617.073	657.6
617.485	667.6
617.898	681.2
618.311	671.8
618.723	671.8
619.136	701.6
619.549	679.2
619.962	691.4
620.375	670
620.788	664.6
621.201	658
621.614	672.4
622.028	665.4
622.441	665.6
622.854	687.2
623.268	668.2
623.681	675.8
624.095	669.6
624.509	674.8
624.922	681
625.336	653.8
625.728	668.2
626.142	672
626.556	684.2
626.97	674.8
627.384	665.8
627.799	669.4
628.213	685
628.627	664.6
629.041	668.6
629.456	662.8
629.87	674.6
630.285	684.6
630.699	679.8
631.093	669.6
631.507	675.8
631.922	685.6
632.337	690.8
632.752	657.8
633.167	668.4
633.582	670.2
633.997	672.4
634.412	656
634.806	672.6
635.221	668.2
635.637	685.4
636.052	650
636.468	666
636.883	692
637.299	662.6
637.715	652.2
638.109	667.6
638.525	659.6
638.941	678.2
639.357	672.6
639.773	680
640.189	651.6
640.584	664.6
641	660.8
641.416	650.6
641.832	659.4
642.249	667
642.665	671.4
643.06	672.8
643.477	676.6
643.894	658.4
644.31	671
644.727	659.8
645.123	664.6
645.54	663.2
645.957	664.6
646.374	690.6
646.77	672.2
647.187	702.8
647.604	662
648.021	646.6
648.439	670
648.835	671.4
649.252	665.2
649.67	661.8
650.088	674.8
650.484	677
650.902	672.6
651.32	672.6
651.738	656.8
652.134	668.4
652.552	685.6
652.971	674
653.389	664.6
653.786	683
654.204	691
654.622	665
655.019	666.4
655.438	677.8
655.857	680
656.275	672.6
656.673	658.6
657.091	751.8
657.51	649.6
657.908	672.2
658.327	685
658.746	650
659.144	671.8
659.563	684.4
659.982	668.6
660.38	660.8
660.8	662.4
661.219	670
661.617	676.2
662.037	667.2
662.457	680.4
662.855	657.2
663.275	703
663.695	666.8
664.094	666.2
664.514	666
664.934	664
665.333	681
665.753	660.2
666.152	657.6
666.572	662
666.993	683
667.392	661
667.812	666.8
668.212	657.4
668.632	669.4
669.053	659.8
669.453	674.6
669.874	670.6
670.273	668.6
670.694	655
671.116	681.6
671.515	672.8
671.937	670
672.337	672
672.758	655.4
673.158	670.6
673.58	660.2
673.98	674.6
674.402	680.4
674.824	664.2
675.224	664.2
675.646	662.2
676.047	662.8
676.469	662.6
676.869	678.8
677.292	670.2
677.693	656
678.115	663
678.516	672.6
678.939	675.4
679.34	670.6
679.762	680.6
680.164	673
680.586	657.2
680.988	664.2
681.411	693.6
681.812	657.2
682.236	648.2
682.637	651.4
683.061	650.8
683.462	665.4
683.864	657
684.288	674.8
684.69	654
685.114	677.2
685.516	671
685.94	652.6
686.342	679
686.766	660
687.168	659.2
687.571	686.4
687.995	661.8
688.398	648.6
688.822	664.2
689.225	689
689.628	696.8
690.052	664.2
690.456	670.6
690.88	666.8
691.284	662
691.687	673.4
692.112	656.4
692.515	657
692.919	676.6
693.344	674.2
693.747	671.8
694.173	656.4
694.577	684.8
694.98	659.2
695.406	657.2
695.81	664.8
696.214	668.4
696.64	665.8
697.044	664.8
697.448	678.8
697.874	656.2
698.279	673.2
698.684	652.2
699.11	662.4
699.514	653.4
699.919	666.4
700.324	654.6
700.75	675.2
701.156	664.6
701.561	668.4
701.987	671
702.393	671.8
702.798	678.4
703.203	659.8
703.63	662.2
704.036	665
704.442	664
704.847	657.2
705.274	656.6
705.68	668.2
706.086	669.6
706.492	653
706.92	662.6
707.326	680.2
707.732	665.2
708.139	657.6
708.545	658.8
708.973	665.4
709.38	654.8
709.786	647.8
710.193	691.2
710.6	671
711.028	658.8
711.435	652.6
711.842	658.8
712.249	653.4
712.656	663.2
713.064	673.6
713.492	656
713.9	660.8
714.307	664.2
714.715	668.6
715.123	675
715.53	666.4
715.938	674
716.367	668.2
716.775	659
717.184	658.4
717.592	664.4
718	675
718.408	703.2
718.816	715.8
719.225	673.6
719.633	667.4
720.042	662.6
720.472	655.2
720.881	691.8
721.29	663.8
721.699	654
722.108	670.2
722.517	671.2
722.926	660.6
723.335	672.2
723.744	661.8
724.154	669.8
724.563	665.6
724.973	669.6
725.382	663
725.792	655.6
726.202	650.4
726.612	691.2
727.022	671.4
727.432	659.2
779.813	663.6
780.223	714
780.634	661.2
781.044	655.4
781.454	657.4
781.865	681
782.276	656
782.686	675.6
783.097	666.4
783.508	651
783.919	672.2
784.33	675.4
784.741	682.2
785.152	658.4
785.563	648.2
785.974	664.2
786.386	676.6
786.776	660
787.188	662.4
787.599	658.8
788.011	669.6
788.423	663.8
788.835	653.8
789.247	647.8
789.659	656
790.071	662.8
790.483	716.4
790.874	659.2
791.286	672.2
791.699	660.8
792.111	663.6
792.524	665.2
792.937	662.6
793.349	654.2
793.741	651.4
794.154	661.2
794.567	678
794.98	664.4
795.393	647.4
795.785	679.4
796.198	658
796.612	664.8
797.026	658.6
797.439	642.8
797.831	659.4
798.245	645.6
798.659	650.6
799.073	657.2
799.487	650
799.88	663.2
800.294	663.6
800.708	677.6
801.123	662.2
801.516	681.6
801.93	642.8
802.345	639
802.76	655.8
803.153	682.8
803.568	680.8
803.983	671.4
804.377	663.8
804.792	642.2
805.207	638.2
805.601	657.4
806.016	699
806.432	654.6
806.826	696.4
807.242	676.6
807.658	668
808.052	654.8
808.468	652.8
808.884	664.6
809.279	661.2
809.695	687.8
810.111	685.4
810.506	661
810.922	684.6
811.339	657.4
811.734	678.6
812.151	662.4
812.546	651.8
812.963	654.4
813.38	662.4
813.776	669.6
814.193	686.8
814.589	653.2
815.006	669.6
815.402	649.8
815.82	662.8
816.237	657
816.633	657.4
817.051	646.8
817.448	657.4
817.866	655.4
818.262	673.4
818.68	658.8
819.077	660.6
819.495	660.8
819.892	699.8
820.311	662.4
820.708	655.2
821.127	663.2
821.524	670
821.943	662.2
822.34	678
822.759	666.6
823.157	663.8
823.576	681.2
823.974	672.8
824.393	780.2
824.791	654.8
825.189	655.6
825.609	652.8
826.007	661.4
826.427	645.6
826.826	665
827.246	676.4
827.644	638.8
828.043	674.2
828.463	652.2
828.862	686.8
829.261	674
829.682	651.2
830.081	670.8
830.502	651.8
830.901	665
831.301	653.4
831.722	642.8
832.121	663.6
832.521	648.4
832.943	655
833.342	661.6
833.742	649
834.164	656.4
834.564	645
834.965	672
835.386	654.6
835.787	655.4
836.188	653.2
836.588	657.6
837.01	645.6
837.411	657.6
837.812	664.6
838.213	660.6
838.636	658.4
839.037	731.4
839.438	661.4
839.84	660.6
840.263	663.2
840.664	671
841.066	661.2
841.468	664.8
841.891	650.4
842.293	666
842.695	671.2
843.098	676.4
843.5	657.6
843.902	671
844.326	661.4
844.729	656.6
845.131	672.6
845.534	650.2
845.937	671.4
846.34	670.2
846.764	661.2
847.167	664.4
847.571	645.2
847.974	660.8
848.377	658.6
848.781	718.2
849.184	675.8
849.588	655
849.992	659
850.396	657.4
850.821	675.8
851.225	664.4
851.63	657.2
852.034	672.6
852.438	660.8
852.843	712.2
853.247	649
853.652	650.4
854.057	677.6
854.462	654.4
854.867	656.4
855.272	687.6
855.677	658.4
