#lambda/nm	C1
208.295	555.8
208.67	501.4
209.045	458.6
209.419	461.2
209.794	685.2
210.169	672.4
210.544	807.2
210.919	699.4
211.295	688.4
211.67	689.8
212.045	691.8
212.421	691.4
212.796	733
213.172	684
213.547	685.8
213.923	686.6
214.299	683
214.675	698.6
215.051	694.2
215.427	705.6
215.803	712.8
216.179	701
216.555	681.2
216.932	702.4
217.308	692
217.684	692.6
218.061	690.6
218.438	691.2
218.814	692.4
219.191	698.4
219.568	677.2
219.945	688.8
220.322	682.8
220.699	705.4
221.076	701.4
221.453	691.4
221.83	686.2
222.208	681.4
222.585	682.8
222.962	687.6
223.34	695.6
223.717	690.6
224.095	679.4
224.473	696.6
224.851	683.6
225.229	673
225.607	704
225.985	677.6
226.363	688.6
226.741	688.2
227.119	697.2
227.497	711.4
227.876	677
228.254	697
228.633	691.2
229.011	687.6
229.39	697.2
229.769	685.2
230.148	691.6
230.527	722.8
230.905	677.6
231.284	692.6
231.664	678.8
232.043	705
232.422	703
232.801	689.6
233.181	700.8
233.56	695
233.94	693.4
234.319	679.2
234.699	691
235.079	736.2
235.458	735.2
235.838	707.2
236.218	681.2
236.598	680.6
236.978	690
237.358	680.4
237.738	682.6
238.119	701
238.499	685.6
238.88	690.2
239.26	705.8
239.641	676.6
240.021	683.8
240.402	685.8
240.783	687.2
241.163	683.2
241.544	691.6
241.925	691.4
242.306	701.4
242.687	681.2
243.069	687.6
243.45	685.6
243.831	679.2
244.212	687.2
244.594	733.4
244.975	698.8
245.357	683
245.739	676.2
246.12	688.2
246.502	707.6
246.884	684.8
247.266	687
247.648	694.8
248.03	714.8
248.412	683.8
248.794	699.2
249.176	684.2
249.559	696.6
249.941	684.2
250.323	680.2
250.706	680.8
251.089	690.8
251.471	703
251.854	682.8
252.237	694.2
252.62	697.8
253.002	694
253.385	686
253.769	702.8
254.152	694.2
254.535	695
254.918	678.4
255.301	694.4
255.685	694.6
256.068	678.6
256.452	723.8
256.835	708.6
257.219	706.6
257.603	704.2
257.986	680.4
258.37	698
258.754	684
259.138	698
259.522	701.8
259.906	694.2
260.29	699.4
260.675	686
261.059	695.8
261.443	685
261.828	700.6
262.212	704.6
262.597	686.4
262.981	683.2
263.366	696.2
263.751	681.4
264.136	679.4
264.521	687
264.906	681.8
265.291	697.8
265.676	677.4
266.061	695.6
266.446	704.8
266.831	684.6
267.217	714
267.602	689.2
267.987	687
268.373	695.8
268.759	700.8
269.144	690.6
269.53	681
269.916	681.6
270.302	693.4
270.688	700.4
271.074	693
271.46	705.2
271.846	728.8
272.232	692.4
272.618	681.2
273.004	689.8
273.391	701.4
273.777	707.6
274.164	700.2
274.55	697.8
274.937	692.4
275.324	686.6
275.71	697.6
276.097	706.2
276.484	679.8
276.871	692.8
277.258	696.2
277.645	677.4
278.032	674.6
278.419	688.8
278.807	692.2
279.194	663.6
279.581	685
279.969	695.4
280.356	680.6
280.744	692.2
281.131	718
281.519	706.8
281.907	691.2
282.295	693.8
282.682	709.2
283.07	696.2
283.458	709
283.846	707.8
284.235	711.8
284.623	694.8
285.011	687
285.399	690.8
285.788	697.6
286.176	681.2
286.565	702.2
286.953	685.8
287.342	689
287.731	687.2
288.119	680.4
288.508	679
288.897	689.4
289.286	675.2
289.675	691.6
290.064	706
290.453	689.2
290.821	695.2
291.21	709.8
291.599	687.8
291.989	686
292.378	693.2
292.768	705.4
293.157	695.8
293.547	707
293.936	696.2
294.326	683.4
294.716	699.2
295.106	690
295.496	700.6
295.886	704.8
296.276	702.4
296.666	692.6
297.056	688.8
297.446	679.6
297.836	714.4
298.227	691
298.617	701.8
299.008	709
299.398	693.2
299.789	693.8
300.179	696
300.57	707.8
300.961	688.4
301.352	681.4
301.742	701.2
302.133	693.4
302.524	694.2
302.915	695
303.307	688.4
303.698	703
304.089	696
304.48	688.6
304.872	695
305.263	687.2
305.655	685.8
306.046	697.8
306.438	693.6
306.829	685.6
307.221	706.2
307.613	691.6
308.005	702
308.397	698
308.789	718
309.181	718.6
309.573	712.6
309.965	714.4
310.357	687.4
310.749	719
311.142	685.6
311.534	685.6
311.926	693.2
312.319	698.4
312.711	685.2
313.104	707.4
313.497	687
313.889	744.4
314.282	706.8
314.675	719.2
315.068	698.8
315.461	704.4
315.854	733
316.247	709.6
316.64	698
317.033	702.8
317.405	713
317.798	692.6
318.192	699
318.585	680.6
318.979	705
319.372	694.8
319.766	707.2
320.16	713
320.553	713
320.947	721.8
321.341	687.6
321.735	691.4
322.129	678.4
322.523	722
322.917	689.8
323.311	706.6
323.705	689.8
324.099	697.8
324.494	717.8
324.888	710.4
325.282	695.4
325.677	702.6
326.071	703.2
326.466	717.6
326.861	700.2
327.255	711.8
327.65	705.6
328.045	716
328.44	696.6
328.835	697.2
329.23	687.4
329.625	720.6
330.02	693.6
330.415	721.2
330.81	693
331.206	696.8
331.601	688.2
331.996	698.2
332.37	723.2
332.766	689.2
333.161	724.2
333.557	692.6
333.953	697.4
334.348	1024.6
334.744	691.2
335.14	683.6
335.536	691
335.932	706.6
336.328	701
336.724	710.4
337.12	685.4
337.516	703.4
337.913	690.6
338.309	705.4
338.705	699
339.102	704.2
339.498	693
339.895	720.8
340.291	693
340.688	710.8
341.085	695
341.481	686.4
341.878	699.8
342.275	722.2
342.672	692.8
343.069	689
343.466	674.2
343.842	703.4
344.239	688.8
344.636	694.2
345.033	672.2
345.431	679.6
345.828	693
346.225	688.6
346.623	737.2
347.02	701.6
347.418	704.8
347.816	697.8
348.213	684
348.611	697.4
349.009	679.6
349.407	706.4
349.805	672.6
350.203	679.2
350.601	703
350.999	688.4
351.397	742.6
351.795	693.8
352.193	697
352.57	708.2
352.969	713.8
353.367	683
353.766	685.8
354.164	684
354.563	705.8
354.961	696.4
355.36	688.6
355.759	686.4
356.158	685.8
356.557	682.8
356.956	677.2
357.355	677.6
357.754	698.4
358.153	701
358.552	728.4
358.951	694.8
359.35	703
359.75	685.4
360.149	680.8
360.527	678.2
360.926	679.6
361.326	684.8
361.726	688.8
362.125	675
362.525	698.8
362.925	688.2
363.325	680.8
363.724	688
364.124	676.6
364.524	675.8
364.924	687.4
365.324	702.4
365.725	681.2
366.125	694
366.525	685.8
366.904	676.8
367.304	669.6
367.705	697.8
368.105	706.2
368.506	681.6
368.906	694.6
369.307	679.6
369.708	692.2
370.108	672.2
370.509	697
370.91	678.6
371.311	688.8
371.712	690
372.113	687
372.514	682
372.894	680.2
373.295	677.6
373.696	694
374.097	698
374.499	715
374.9	687.6
375.301	680.8
375.703	689.4
376.105	676.4
376.506	690
376.908	692
377.309	686.2
377.711	690
378.113	680.6
378.493	689
378.895	684
379.297	693.4
379.699	669.6
380.102	698.6
380.504	684.8
380.906	678.8
381.308	718.4
381.71	679.4
382.113	694.6
382.515	686.6
382.918	692.8
383.299	678
383.701	688.6
384.104	688.2
384.507	666.6
384.909	687.8
385.312	676.4
385.715	666.8
386.118	682.4
386.521	667.8
386.924	696
387.327	682.4
387.709	671.2
388.112	671.4
388.515	685
388.918	678.6
389.322	690
389.725	680.6
390.129	717.2
390.532	687
390.936	684
391.339	674
391.743	691.4
392.125	682
392.529	694.6
392.933	705.2
393.337	674
393.74	683.6
394.144	681.6
394.548	669.8
394.953	680.4
395.357	690.2
395.761	683.8
396.144	685.8
396.548	683
396.952	689.2
397.357	698.8
397.761	686.8
398.166	687.4
398.57	688.8
398.975	677
399.379	677.4
399.763	742.8
400.168	685.8
400.572	681.8
400.977	681.4
401.382	709.8
401.787	688.2
402.192	687.6
402.597	706.4
403.002	678.6
403.386	705.8
403.791	704.6
404.197	679.4
404.602	684.6
405.007	682.8
405.413	687
405.818	687
406.224	684
406.608	681.6
407.014	671.8
407.42	702.4
407.825	684.4
408.231	693.2
408.637	693.4
409.043	696.6
409.449	681.2
409.834	672.8
410.24	684
410.646	697.6
411.052	691.4
411.458	684.4
411.865	688.6
412.271	691.2
412.677	688.4
413.062	682
413.469	684
413.875	719.4
414.282	698.8
414.689	694
415.095	693.8
415.502	678.4
415.888	692.6
416.294	660.4
416.701	739.6
417.108	678.8
417.515	694.8
417.923	673
418.33	708.8
418.715	698.8
419.123	683.6
419.53	680.6
419.937	696
420.345	708.8
420.752	689.2
421.16	711.2
421.546	689.2
421.953	707.2
422.361	677.6
422.769	681.8
423.177	682.4
423.585	721
423.992	715.6
424.379	702.4
424.787	700.6
425.195	709.8
425.603	688.4
426.011	703
426.419	701.6
426.806	696
427.214	703.6
427.623	705.2
428.031	707.4
428.44	693.2
428.848	703.6
429.235	709.6
429.644	689.6
430.053	688.2
430.461	707.4
430.87	716
431.279	705
431.666	690.4
432.075	694
432.484	693.4
432.893	690.8
433.302	718.8
433.711	751.6
434.099	693
434.508	683.4
434.918	681.8
435.327	703.6
435.737	686.8
436.125	684
436.534	698.8
436.944	694.2
437.353	699
437.763	713
438.173	684.6
438.561	706.4
438.971	673.4
439.381	693.8
439.791	697
440.201	673.8
440.589	703.6
440.999	704.6
441.409	701.2
441.819	683.4
442.23	710
442.619	708.2
443.029	695.2
443.439	703.6
443.85	708.6
444.26	727.8
444.649	711
445.06	695.8
445.471	697.4
445.881	704.8
446.292	728.4
446.682	731.8
447.092	694.4
447.503	760.6
447.914	711.4
448.325	712
448.715	714
449.126	701.4
449.537	714.2
449.948	717
450.338	707.4
450.75	714.4
451.161	719.4
451.572	713.4
451.984	713.4
452.374	692.6
452.786	714.2
453.197	714.6
453.609	714.4
453.999	699
454.411	696.2
454.823	723.2
455.235	711.4
455.647	711.4
456.037	727.2
456.449	705.8
456.862	724.4
457.274	731
457.665	703.6
458.077	721.8
458.489	746.6
458.902	712.4
459.293	720
459.705	719.4
460.118	709
460.53	726
460.921	708.6
461.334	723
461.747	722
462.16	735.8
462.551	742.6
462.964	729
463.377	710.8
463.79	724.4
464.182	731.6
464.595	715.4
465.008	734
465.421	730.6
465.813	719.6
466.226	729.4
466.64	726.6
467.053	770.8
467.445	735
467.859	744
468.272	725.2
468.686	742.4
469.078	723.2
469.492	709.4
469.906	731.8
470.298	726.4
470.712	717.6
471.126	793
471.54	711.6
471.933	710.2
472.347	726
472.761	718.6
473.175	712.2
473.568	715.8
473.982	711
474.397	724.8
474.79	726.2
475.204	729.6
475.619	724
476.033	726.4
476.426	722.8
476.841	719.8
477.256	757.2
477.649	712
478.064	711
478.479	721.6
478.872	718.2
479.287	705.8
479.702	712.6
480.118	727.6
480.511	729.6
480.927	716.8
481.342	722.4
481.736	730.4
482.151	719.2
482.566	730
482.96	735.2
483.376	736
483.792	719.8
484.186	729.4
484.602	713
485.017	731.4
485.412	726.4
485.827	720.4
486.243	724
486.638	748.2
487.054	722
487.47	727.2
487.865	718.4
488.281	719.6
488.697	715.6
489.092	714.4
489.508	711.4
489.925	731.6
490.32	714.4
490.736	730
491.153	719.2
491.548	721.4
491.964	728.8
492.381	703
492.776	725.6
493.193	718.6
493.61	728.6
494.006	723.2
494.422	732
494.84	705.6
495.235	741.2
495.652	712
496.069	725.8
496.465	703.4
496.883	714.2
497.3	743.4
497.696	716.4
498.113	720.6
498.509	702.8
498.927	709
499.344	708.4
499.741	712.6
500.158	728.2
500.576	721.2
500.973	711
501.39	695
501.787	702.4
502.205	714.8
502.623	708.2
503.02	691.2
503.438	705
503.856	705.8
504.253	713
504.671	714
505.068	704.2
505.486	703
505.905	734.6
506.302	711.4
506.72	716.2
507.118	703.4
507.536	708.4
507.955	714.4
508.352	714
508.771	716
509.169	711.8
509.587	709.2
510.006	706
510.404	690
510.823	700.6
511.221	706.8
511.64	701.4
512.038	715.4
512.457	703.6
512.877	704.8
513.275	694.4
513.694	690
514.092	696.4
514.512	710.6
514.91	696
515.33	704.8
515.749	699.6
516.148	704.8
516.568	698.4
516.966	698
517.386	687
517.785	700.6
518.205	692.8
518.603	692
519.024	684.4
519.444	706.2
519.843	713.8
520.263	711.6
520.662	697.4
521.082	694.6
521.481	706.8
521.902	697.6
522.301	696.2
522.722	706.2
523.121	685.4
523.542	689.6
523.963	695.8
524.362	699.4
524.783	698.4
525.183	705.2
525.604	701.2
526.003	695.2
526.425	693
526.824	705.2
527.246	705
527.646	705.4
528.067	695.2
528.467	698.8
528.888	702.4
529.289	697.6
529.71	697
530.11	691.2
530.532	682
530.932	686.2
531.354	682.4
531.755	732.4
532.176	708.4
532.577	694.2
532.999	694.4
533.4	688
533.822	698
534.223	694.6
534.645	691.2
535.046	690.2
535.468	685.8
535.869	707.6
536.292	690.4
536.693	732
537.115	687.2
537.516	679.2
537.939	681.8
538.34	711.6
538.742	708.6
539.165	691
539.566	694.2
539.989	688.2
540.391	673
540.814	687
541.216	689.6
541.639	689
542.041	700.4
542.464	681.6
542.866	681.4
543.268	671.8
543.691	695.4
544.093	688.2
544.517	713.6
544.919	680.6
545.343	711.2
545.745	676.2
546.147	697.6
546.571	680.2
546.974	678.6
547.398	690.8
547.8	713.2
548.224	680.2
548.627	677.8
549.03	698.6
549.454	677
549.857	666.2
550.281	681.4
550.684	671.6
551.087	700.2
551.512	689.4
551.915	694.8
552.34	688.6
552.743	680.6
553.146	696.2
553.571	688.6
553.975	712.8
554.399	674.2
554.803	733.4
555.207	682.8
555.632	671.2
556.036	692
556.461	681.6
556.865	679
557.268	675.2
557.694	678.2
558.098	691
558.502	684.8
558.927	672.2
559.332	678
559.736	682
560.162	683
560.566	679.6
560.992	683
561.396	677.2
561.801	687.8
562.227	675
562.631	676
563.036	683.2
563.462	689.2
563.867	684.2
564.272	667.8
564.698	681.6
565.103	674.6
565.508	706
565.935	680.6
566.34	677.2
566.745	700.6
567.172	666.4
567.577	705
567.982	700.2
568.409	688.2
568.815	668.4
569.22	678.2
569.626	688.2
570.053	669.4
570.459	682.2
570.865	692.8
571.292	682
571.698	680.8
572.104	661.4
572.531	669.8
572.937	695.2
573.343	676.2
573.75	671.4
574.177	686.4
574.583	692.4
574.99	681.2
575.396	681.4
575.824	674
576.231	682
576.637	668
577.065	701
577.472	671
577.879	662.8
578.286	697
578.714	662.4
579.121	682.4
579.528	684
579.935	689
580.364	676.6
580.771	656.2
581.178	673.4
581.585	681.8
582.014	679
582.421	670.4
582.829	674.4
583.236	682.8
583.644	669.2
584.073	671.2
584.481	678.4
584.889	671.4
585.296	674.4
585.726	676
586.134	675.8
586.542	667.2
586.95	693.4
587.358	675.8
587.787	678.8
588.196	664.8
588.604	668.2
589.012	677.2
589.421	669.4
589.851	667.6
590.259	678.2
590.668	673.8
591.076	717
591.485	655.6
591.894	670.4
592.324	687.8
592.733	687.2
593.142	656
593.551	671.2
593.96	676.6
594.369	653.2
594.8	660.6
595.209	677.4
595.618	650.6
596.028	655
596.437	658
596.847	675.4
597.256	667.6
597.687	673.8
598.097	669.6
598.507	662.8
598.917	670.6
599.327	681.6
599.736	670.2
600.146	677.4
600.556	670
600.988	684.6
601.398	660.8
601.808	683.8
602.219	661.2
602.629	673.4
603.039	673
603.45	704
603.86	681
604.271	693.8
604.703	674.8
605.114	674.6
605.525	679.2
605.935	679
606.346	697.8
606.757	671.4
607.168	677.4
607.579	669.2
607.99	678.8
608.402	675.4
608.813	674.8
609.224	668
609.636	661.8
610.047	672.6
610.48	681
610.892	680.8
611.303	682
611.715	674.8
612.127	663.8
612.539	662
612.95	665.6
613.362	659
613.774	666.6
614.186	667.6
614.599	663.4
615.011	680.4
615.423	666.8
615.835	656.2
616.248	659.2
616.66	670.2
617.073	655
617.485	664.6
617.898	679.8
618.311	667.8
618.723	668.2
619.136	705.6
619.549	692.8
619.962	684.8
620.375	653.6
620.788	662.4
621.201	657.4
621.614	671.6
622.028	665.8
622.441	676
622.854	683.2
623.268	655.2
623.681	677.2
624.095	668.6
624.509	681.6
624.922	676
625.336	654.4
625.728	676
626.142	682.2
626.556	686.8
626.97	679
627.384	667.4
627.799	663.8
628.213	678
628.627	671.6
629.041	662.6
629.456	663.8
629.87	670
630.285	672.6
630.699	682.2
631.093	677.2
631.507	666
631.922	675.2
632.337	686
632.752	661
633.167	670.4
633.582	670.6
633.997	667.8
634.412	659.4
634.806	672
635.221	658.8
635.637	684
636.052	655
636.468	668.2
636.883	695
637.299	672.8
637.715	651.6
638.109	666.2
638.525	655.6
638.941	675.4
639.357	676
639.773	685
640.189	663.8
640.584	671
641	673.6
641.416	659.4
641.832	672
642.249	668.2
642.665	666
643.06	671
643.477	684
643.894	646
644.31	662.2
644.727	665.4
645.123	671.6
645.54	658.6
645.957	676.2
646.374	683.8
646.77	669
647.187	708.2
647.604	665.4
648.021	654.2
648.439	662.4
648.835	672.2
649.252	672.2
649.67	668.2
650.088	676
650.484	674.2
650.902	666.8
651.32	673.2
651.738	664.4
652.134	677.2
652.552	686.4
652.971	680.2
653.389	670.8
653.786	681
654.204	688.6
654.622	655.4
655.019	674
655.438	674.2
655.857	666.6
656.275	672
656.673	661
657.091	743.8
657.51	663.6
657.908	677.2
658.327	689.4
658.746	655.8
659.144	666.4
659.563	682.4
659.982	670.6
660.38	661.6
660.8	665.6
661.219	679.6
661.617	663
662.037	666.2
662.457	684.6
662.855	648
663.275	704.4
663.695	677.6
664.094	661.8
664.514	668.6
664.934	662
665.333	674.2
665.753	663.6
666.152	659.2
666.572	661.6
666.993	671.2
667.392	662
667.812	661.4
668.212	668
668.632	675.6
669.053	658
669.453	677.2
669.874	671
670.273	678.4
670.694	656.6
671.116	682.2
671.515	679.8
671.937	667.8
672.337	668.4
672.758	662.6
673.158	675.6
673.58	655.4
673.98	673.8
674.402	675
674.824	670.8
675.224	662.4
675.646	658.2
676.047	657.8
676.469	662.4
676.869	672.6
677.292	666.8
677.693	659
678.115	659
678.516	672.8
678.939	671.8
679.34	664.6
679.762	682.8
680.164	673.4
680.586	661.8
680.988	665.4
681.411	699
681.812	663.6
682.236	653
682.637	655.6
683.061	651.2
683.462	668.4
683.864	664.6
684.288	673
684.69	652.8
685.114	681.2
685.516	679
685.94	651.4
686.342	679.6
686.766	657.2
687.168	659.4
687.571	688.2
687.995	678.6
688.398	655.2
688.822	660.4
689.225	678
689.628	690.2
690.052	671
690.456	672
690.88	665.6
691.284	647.4
691.687	674.8
692.112	659.4
692.515	658
692.919	665.8
693.344	668.4
693.747	650.8
694.173	655
694.577	673.6
694.98	670.4
695.406	656.6
695.81	667.6
696.214	665.8
696.64	663.2
697.044	673.6
697.448	669.8
697.874	656.8
698.279	647.6
698.684	661
699.11	657.4
699.514	668.4
699.919	665
700.324	660
700.75	666
701.156	665.2
701.561	677.8
701.987	666.8
702.393	668.6
702.798	678.4
703.203	657.4
703.63	663.8
704.036	650.6
704.442	666.2
704.847	657
705.274	663.6
705.68	672
706.086	676
706.492	654.8
706.92	668.6
707.326	671
707.732	666.2
708.139	671
708.545	662.4
708.973	654
709.38	663.2
709.786	649.8
710.193	686
710.6	664.2
711.028	661.6
711.435	670.8
711.842	660.4
712.249	655.4
712.656	657
713.064	676.2
713.492	654.6
713.9	665.8
714.307	664
714.715	663.2
715.123	668.2
715.53	662
715.938	672
716.367	668.4
716.775	660.8
717.184	647.8
717.592	665.6
718	676
718.408	706.4
718.816	710.4
719.225	673.4
719.633	672.2
720.042	653.6
720.472	664.4
720.881	686.8
721.29	665.8
721.699	645
722.108	667.6
722.517	668.2
722.926	646.2
723.335	672.4
723.744	660
724.154	662.2
724.563	671
724.973	667
725.382	659.8
725.792	665.6
726.202	660.8
726.612	691.4
727.022	661
727.432	653.2
779.813	649.6
780.223	717.6
780.634	657.4
781.044	652.4
781.454	666
781.865	679.4
782.276	649.6
782.686	676.6
783.097	659
783.508	660.8
783.919	662.6
784.33	672.2
784.741	678.2
785.152	661.6
785.563	641.8
785.974	659
786.386	669.2
786.776	664
787.188	663.6
787.599	646.6
788.011	663.4
788.423	661.4
788.835	652.4
789.247	656.6
789.659	651.2
790.071	658
790.483	708.2
790.874	667.4
791.286	671.6
791.699	661.4
792.111	658.4
792.524	667
792.937	666
793.349	659
793.741	650.2
794.154	665.6
794.567	679.2
794.98	661.2
795.393	653
795.785	678.8
796.198	654.6
796.612	671.8
797.026	657
797.439	644.6
797.831	661.4
798.245	651
798.659	662.2
799.073	664.6
799.487	657
799.88	665.6
800.294	658.2
800.708	661.2
801.123	664.8
801.516	689.6
801.93	652.2
802.345	654
802.76	666.4
803.153	681.4
803.568	677.6
803.983	677.4
804.377	667.6
804.792	648.6
805.207	645.8
805.601	668.2
806.016	702.4
806.432	652.4
806.826	689.2
807.242	681.6
807.658	662
808.052	655.8
808.468	655
808.884	665.2
809.279	673
809.695	678.6
810.111	687.8
810.506	671.6
810.922	688.2
811.339	662
811.734	672.4
812.151	658.8
812.546	664.8
812.963	656.4
813.38	670.4
813.776	660
814.193	689.6
814.589	655.2
815.006	660.4
815.402	655.4
815.82	649
816.237	661.8
816.633	666
817.051	647
817.448	659.8
817.866	645
818.262	686.2
818.68	654
819.077	651
819.495	672.6
819.892	702.4
820.311	659.2
820.708	654.2
821.127	653
821.524	681
821.943	660.8
822.34	690.6
822.759	667
823.157	657.2
823.576	673.8
823.974	675.6
824.393	788.6
824.791	658.4
825.189	654.4
825.609	656.6
826.007	658.4
826.427	650
826.826	656
827.246	665.4
827.644	654.8
828.043	676
828.463	657.8
828.862	668.8
829.261	674.2
829.682	649.6
830.081	669
830.502	651.2
830.901	661.2
831.301	660
831.722	650.4
832.121	664.2
832.521	655.4
832.943	659.6
833.342	659.2
833.742	656.6
834.164	652
834.564	641
834.965	660
835.386	645.6
835.787	659.2
836.188	660
836.588	663.2
837.01	652.4
837.411	646.2
837.812	658.6
838.213	665.8
838.636	654.4
839.037	732
839.438	661.2
839.84	656.6
840.263	669.4
840.664	663
841.066	649.4
841.468	665.6
841.891	659.6
842.293	674.4
842.695	666.4
843.098	668.4
843.5	657.8
843.902	664
844.326	667.4
844.729	657.2
845.131	678
845.534	664.8
845.937	681.6
846.34	683
846.764	656.2
847.167	662.2
847.571	657
847.974	655
848.377	658
848.781	715
849.184	681
849.588	653.4
849.992	647.2
850.396	655.4
850.821	685.8
851.225	673.4
851.63	655.2
852.034	674.2
852.438	661.8
852.843	712.2
853.247	652.2
853.652	653.6
854.057	689.2
854.462	663.8
854.867	666
855.272	690.8
855.677	668.8
856.082	651.2
856.487	641.8
856.893	669
857.298	659.2
857.704	653
858.11	671.4
858.516	661.4
858.922	665.8
