#lambda/nm	C1
208.295	546.6
208.67	493
209.045	455.4
209.419	456
209.794	688.8
210.169	671.8
210.544	811.6
210.919	702.8
211.295	681
211.67	692.2
212.045	692.6
212.421	682.2
212.796	731.2
213.172	685.2
213.547	679.8
213.923	697.6
214.299	685
214.675	699.4
215.051	695.8
215.427	698.4
215.803	714
216.179	696.4
216.555	681
216.932	698.6
217.308	690.8
217.684	692.2
218.061	700.4
218.438	692.2
218.814	678.4
219.191	692.2
219.568	681.2
219.945	687.8
220.322	696
220.699	696.2
221.076	694.6
221.453	700.4
221.83	680.6
222.208	688.8
222.585	692
222.962	698
223.34	695
223.717	693
224.095	686
224.473	691.6
224.851	685.2
225.229	678.6
225.607	710.2
225.985	683
226.363	686.8
226.741	689.6
227.119	691
227.497	698.2
227.876	685
228.254	696
228.633	698.2
229.011	691.2
229.39	688.6
229.769	690.6
230.148	700.6
230.527	711.4
230.905	696.6
231.284	689.6
231.664	690.6
232.043	712.4
232.422	709.8
232.801	683.8
233.181	698
233.56	692.6
233.94	689
234.319	685.6
234.699	687.6
235.079	735.6
235.458	738.2
235.838	706.4
236.218	689
236.598	674.2
236.978	680.4
237.358	686.2
237.738	688
238.119	696
238.499	675.8
238.88	694.4
239.26	708.2
239.641	672.2
240.021	684.4
240.402	689.8
240.783	684.8
241.163	686.2
241.544	688.6
241.925	691.2
242.306	711.6
242.687	684.4
243.069	692.2
243.45	694.8
243.831	683.2
244.212	688.4
244.594	734
244.975	701.8
245.357	691.4
245.739	681.2
246.12	693.2
246.502	707
246.884	690.6
247.266	693.8
247.648	700.8
248.03	710.4
248.412	691.6
248.794	695
249.176	689.8
249.559	701.6
249.941	678.6
250.323	697.2
250.706	684.6
251.089	690
251.471	697
251.854	693.8
252.237	692
252.62	709.4
253.002	694.6
253.385	686.8
253.769	715.6
254.152	694
254.535	700.6
254.918	680.8
255.301	677.2
255.685	677
256.068	682
256.452	722.8
256.835	709.8
257.219	698.2
257.603	712
257.986	682.8
258.37	699.8
258.754	680.8
259.138	710.4
259.522	708
259.906	692.8
260.29	696.4
260.675	691
261.059	691.8
261.443	677.4
261.828	693.2
262.212	693.4
262.597	679.2
262.981	681.8
263.366	692.6
263.751	702.4
264.136	689.6
264.521	686.8
264.906	683.2
265.291	700.6
265.676	681.8
266.061	691.2
266.446	710.6
266.831	680
267.217	714.2
267.602	699.6
267.987	696
268.373	684.8
268.759	700.6
269.144	691.4
269.53	685.4
269.916	686.4
270.302	687.2
270.688	694.8
271.074	696.8
271.46	702.6
271.846	722.8
272.232	690.2
272.618	681.2
273.004	691.6
273.391	702.8
273.777	703.6
274.164	695.6
274.55	710
274.937	694
275.324	690.4
275.71	693.2
276.097	704.4
276.484	684.2
276.871	695.2
277.258	697.8
277.645	669.8
278.032	684.6
278.419	684.6
278.807	693.6
279.194	674
279.581	689.6
279.969	700.4
280.356	689.6
280.744	694.4
281.131	719.6
281.519	703.8
281.907	684.4
282.295	680
282.682	705.8
283.07	692.2
283.458	700.6
283.846	710.6
284.235	707.2
284.623	694.4
285.011	686.4
285.399	693.6
285.788	703.8
286.176	684
286.565	703.8
286.953	686.6
287.342	691.6
287.731	682.4
288.119	681
288.508	684
288.897	688.2
289.286	671
289.675	693.6
290.064	700.2
290.453	690.4
290.821	688.2
291.21	706.6
291.599	691
291.989	693.4
292.378	698
292.768	715.4
293.157	698.2
293.547	704.8
293.936	686.6
294.326	687.2
294.716	700.4
295.106	688.2
295.496	704.4
295.886	708.2
296.276	700.4
296.666	685.6
297.056	682.2
297.446	682
297.836	713.4
298.227	689.2
298.617	694.2
299.008	707.2
299.398	698.2
299.789	687
300.179	708.8
300.57	711.4
300.961	689
301.352	687
301.742	705.2
302.133	695.8
302.524	693.8
302.915	699.8
303.307	687.6
303.698	704.8
304.089	694.4
304.48	691.6
304.872	701.8
305.263	678.6
305.655	686.8
306.046	698.8
306.438	690.6
306.829	685.4
307.221	698.6
307.613	702.2
308.005	705.4
308.397	718.6
308.789	722.2
309.181	723.8
309.573	717.6
309.965	706.2
310.357	688
310.749	720.2
311.142	685.4
311.534	699
311.926	705.2
312.319	703
312.711	690.6
313.104	710.8
313.497	695
313.889	739.6
314.282	715
314.675	718.4
315.068	697
315.461	702.4
315.854	734.8
316.247	702
316.64	690.6
317.033	696.6
317.405	706.2
317.798	695
318.192	701.2
318.585	700.6
318.979	706.2
319.372	685
319.766	697.6
320.16	709.8
320.553	715.4
320.947	714.2
321.341	684.8
321.735	697.8
322.129	683
322.523	718.2
322.917	679.6
323.311	708.6
323.705	696
324.099	706.4
324.494	716.6
324.888	709.4
325.282	699.8
325.677	704.4
326.071	702
326.466	710.4
326.861	695
327.255	707.2
327.65	715.4
328.045	712.6
328.44	691.4
328.835	701.8
329.23	691
329.625	725
330.02	693.8
330.415	719.2
330.81	698.4
331.206	712.8
331.601	690.2
331.996	701.6
332.37	715.8
332.766	678.6
333.161	714.8
333.557	690.2
333.953	700.2
334.348	1140.6
334.744	693
335.14	699.6
335.536	692.4
335.932	713
336.328	689.6
336.724	704.6
337.12	696.2
337.516	697.6
337.913	696.8
338.309	709
338.705	695.4
339.102	710.6
339.498	694.8
339.895	705.2
340.291	696.2
340.688	708
341.085	679.8
341.481	682.6
341.878	698
342.275	715.2
342.672	687.8
343.069	688.4
343.466	677.8
343.842	700.8
344.239	685.8
344.636	687.6
345.033	692.2
345.431	693.2
345.828	685.8
346.225	690.4
346.623	731
347.02	691.4
347.418	702.8
347.816	716.6
348.213	680.6
348.611	692.6
349.009	687.6
349.407	699.2
349.805	677
350.203	676.8
350.601	709
350.999	688.4
351.397	757
351.795	690.8
352.193	703
352.57	706.2
352.969	709.6
353.367	682.2
353.766	682.8
354.164	684
354.563	700
354.961	686
355.36	689.8
355.759	683.8
356.158	689.4
356.557	683.4
356.956	686.8
357.355	679
357.754	690.6
358.153	699.8
358.552	725.8
358.951	694.6
359.35	707.4
359.75	690
360.149	684
360.527	673.4
360.926	676.8
361.326	685.8
361.726	693.6
362.125	675.4
362.525	700.8
362.925	688.2
363.325	688.2
363.724	689.6
364.124	683
364.524	673.4
364.924	684.6
365.324	707.4
365.725	670.4
366.125	695
366.525	674.6
366.904	678.6
367.304	663.2
367.705	705.6
368.105	708.6
368.506	681.4
368.906	696.2
369.307	685.6
369.708	691.6
370.108	674.4
370.509	692
370.91	676.4
371.311	690.2
371.712	696.2
372.113	673.8
372.514	664.6
372.894	680.8
373.295	673.4
373.696	701.6
374.097	693.4
374.499	720.4
374.9	686
375.301	673.2
375.703	682.8
376.105	679.2
376.506	694
376.908	696.2
377.309	687.4
377.711	681.6
378.113	679
378.493	686.6
378.895	683.4
379.297	694.4
379.699	674
380.102	687.8
380.504	698.4
380.906	680.8
381.308	716.2
381.71	684.4
382.113	694.6
382.515	679
382.918	682.4
383.299	683.4
383.701	702
384.104	687.6
384.507	667.6
384.909	687.8
385.312	667.8
385.715	674.4
386.118	680.6
386.521	668.6
386.924	708
387.327	683.4
387.709	677.4
388.112	675.2
388.515	682.6
388.918	681.8
389.322	697
389.725	683.8
390.129	714.8
390.532	697.6
390.936	685
391.339	678.6
391.743	684.4
392.125	675.4
392.529	699.6
392.933	695.2
393.337	686.4
393.74	683.4
394.144	682
394.548	684.8
394.953	679.8
395.357	690.4
395.761	684
396.144	687
396.548	687.8
396.952	693.2
397.357	689.8
397.761	689.8
398.166	681.2
398.57	679.2
398.975	672.2
399.379	684
399.763	744
400.168	685.4
400.572	681.4
400.977	685.2
401.382	703.6
401.787	689.6
402.192	703.2
402.597	702.8
403.002	673.6
403.386	706.8
403.791	703.8
404.197	680.4
404.602	681.2
405.007	692.2
405.413	687.4
405.818	691.8
406.224	675.8
406.608	675
407.014	664
407.42	713
407.825	675.8
408.231	698.4
408.637	693.4
409.043	700.8
409.449	685.8
409.834	676.2
410.24	685.8
410.646	689.6
411.052	691.8
411.458	685.4
411.865	695.8
412.271	694.2
412.677	687.4
413.062	690.2
413.469	675.2
413.875	712.4
414.282	700.4
414.689	689.4
415.095	693
415.502	679.2
415.888	686.8
416.294	672.6
416.701	735.4
417.108	679
417.515	703.8
417.923	686.4
418.33	708.8
418.715	699
419.123	687.4
419.53	680.6
419.937	693.4
420.345	708
420.752	675.6
421.16	699.6
421.546	694
421.953	696.8
422.361	679.6
422.769	689.6
423.177	688.6
423.585	718.6
423.992	716.4
424.379	708
424.787	699.6
425.195	718
425.603	690
426.011	706.2
426.419	707.2
426.806	699.2
427.214	691.4
427.623	699.2
428.031	700.6
428.44	694.8
428.848	702.4
429.235	705.2
429.644	700.6
430.053	693.2
430.461	709.4
430.87	722
431.279	703.8
431.666	683.2
432.075	695.2
432.484	705.4
432.893	691.4
433.302	703.8
433.711	751
434.099	694.8
434.508	687.8
434.918	685.2
435.327	695.6
435.737	697.4
436.125	698
436.534	703
436.944	699.4
437.353	692.4
437.763	721.6
438.173	684.8
438.561	707
438.971	672.6
439.381	687.6
439.791	693.6
440.201	675.2
440.589	695.2
440.999	706.8
441.409	697.8
441.819	678.8
442.23	694.6
442.619	697
443.029	691.2
443.439	701
443.85	703.6
444.26	708.8
444.649	693.8
445.06	694.8
445.471	688.2
445.881	679.8
446.292	700.4
446.682	711
447.092	674
447.503	748.6
447.914	686.6
448.325	685
448.715	690.2
449.126	680.2
449.537	682.8
449.948	687.6
450.338	690
450.75	701
451.161	693
451.572	696
451.984	687.6
452.374	675.4
452.786	690.2
453.197	690.4
453.609	703.4
453.999	677.4
454.411	673.6
454.823	692.2
455.235	690.6
455.647	684.2
456.037	695.6
456.449	674.2
456.862	681.4
457.274	692.8
457.665	678.8
458.077	687.2
458.489	729
458.902	678.4
459.293	693.8
459.705	692.8
460.118	679.4
460.53	688.8
460.921	694
461.334	705.2
461.747	691.4
462.16	704
462.551	701.2
462.964	695.6
463.377	670.8
463.79	691.4
464.182	698
464.595	683
465.008	689.4
465.421	694.2
465.813	683.2
466.226	695.4
466.64	678.4
467.053	742.4
467.445	699.2
467.859	705.2
468.272	692.6
468.686	699.6
469.078	692.6
469.492	673.6
469.906	689.8
470.298	697
470.712	677.4
471.126	755.4
471.54	680.2
471.933	683.2
472.347	684
472.761	682
473.175	674.2
473.568	679.4
473.982	670
474.397	682.4
474.79	678.8
475.204	692.6
475.619	680.8
476.033	682
476.426	683.2
476.841	679.4
477.256	700.6
477.649	677
478.064	680.6
478.479	674.2
478.872	674.8
479.287	665.2
479.702	676.4
480.118	682.4
480.511	678.2
480.927	682.4
481.342	679
481.736	678.6
482.151	682
482.566	691.2
482.96	681.8
483.376	690.2
483.792	675.2
484.186	689.2
484.602	677.4
485.017	674
485.412	674.8
485.827	688.4
486.243	681.8
486.638	712
487.054	680.2
487.47	704
487.865	681.6
488.281	680.8
488.697	679.2
489.092	683
489.508	679.6
489.925	693.6
490.32	676.2
490.736	685.6
491.153	682
491.548	684.8
491.964	696
492.381	659
492.776	695.2
493.193	683.8
493.61	691.8
494.006	683.8
494.422	691.6
494.84	664.2
495.235	685.2
495.652	686.8
496.069	686.2
496.465	676.4
496.883	682.8
497.3	703.4
497.696	682
498.113	695.2
498.509	673.6
498.927	675
499.344	672
499.741	667
500.158	686.4
500.576	693.4
500.973	688
501.39	674.8
501.787	679.4
502.205	683.2
502.623	671.6
503.02	666.6
503.438	678.2
503.856	676.2
504.253	682.2
504.671	687
505.068	674.2
505.486	677.2
505.905	694.8
506.302	680.2
506.72	689.6
507.118	676.4
507.536	673.4
507.955	680.8
508.352	680.2
508.771	678.2
509.169	687
509.587	676.2
510.006	684.2
510.404	668.6
510.823	670.2
511.221	675
511.64	671.4
512.038	699
512.457	673.2
512.877	677.4
513.275	671
513.694	676.4
514.092	685.8
514.512	685
514.91	674.8
515.33	683.6
515.749	679.6
516.148	682.4
516.568	678.2
516.966	665.4
517.386	673
517.785	678.8
518.205	668.6
518.603	669.6
519.024	670
519.444	679.2
519.843	690.8
520.263	692.2
520.662	678.8
521.082	668
521.481	675.4
521.902	677.8
522.301	682.8
522.722	676.4
523.121	682.6
523.542	674.8
523.963	673.4
524.362	678.2
524.783	686.4
525.183	685.8
525.604	675
526.003	672
526.425	672.8
526.824	683.4
527.246	678.2
527.646	689.4
528.067	679.4
528.467	685.8
528.888	689.8
529.289	677.4
529.71	676.2
530.11	668
530.532	676.8
530.932	663
531.354	655.8
531.755	712.2
532.176	683.6
532.577	675.2
532.999	668.6
533.4	674.4
533.822	680.8
534.223	675.4
534.645	675.4
535.046	672.8
535.468	678
535.869	695.8
536.292	677.8
536.693	719.8
537.115	682.6
537.516	672.6
537.939	677.8
538.34	693
538.742	690.2
539.165	685
539.566	671.4
539.989	663.2
540.391	677.2
540.814	676
541.216	675.8
541.639	673.2
542.041	686.4
542.464	667.8
542.866	667.8
543.268	667.6
543.691	664.8
544.093	683.8
544.517	702.2
544.919	666.8
545.343	698.4
545.745	668.8
546.147	680.6
546.571	671.6
546.974	667
547.398	677.4
547.8	686.4
548.224	681.6
548.627	665.8
549.03	681.8
549.454	661.8
549.857	663.6
550.281	672.2
550.684	670.8
551.087	684.6
551.512	668.6
551.915	680
552.34	675.2
552.743	663
553.146	666.6
553.571	667.4
553.975	693.4
554.399	663.2
554.803	734.2
555.207	670.8
555.632	662
556.036	672.2
556.461	670.6
556.865	677.4
557.268	668.8
557.694	660.6
558.098	685.8
558.502	680
558.927	666.2
559.332	669.6
559.736	673
560.162	676.2
560.566	678.2
560.992	680.6
561.396	679.4
561.801	662.4
562.227	669.4
562.631	672.8
563.036	664.6
563.462	685
563.867	672
564.272	651
564.698	679.2
565.103	660
565.508	695.8
565.935	670
566.34	665.6
566.745	684.8
567.172	661.6
567.577	697.2
567.982	694
568.409	679.6
568.815	666.2
569.22	681.2
569.626	689
570.053	668.2
570.459	681.4
570.865	683.6
571.292	684
571.698	674.6
572.104	663.8
572.531	664.4
572.937	696.4
573.343	666.4
573.75	663.8
574.177	676.4
574.583	676
574.99	661.6
575.396	678
575.824	667.8
576.231	674
576.637	660.6
577.065	697
577.472	662
577.879	667.4
578.286	678.6
578.714	668.4
579.121	670.4
579.528	675.6
579.935	673.6
580.364	668.4
580.771	650
581.178	662.8
581.585	674.8
582.014	667.6
582.421	667.2
582.829	669.6
583.236	682.6
583.644	661.6
584.073	671
584.481	667.2
584.889	659.4
585.296	669
585.726	677.2
586.134	661
586.542	673.8
586.95	686.4
587.358	655.2
587.787	670.8
588.196	651.8
588.604	662.4
589.012	662
589.421	656.6
589.851	661.6
590.259	671
590.668	672.2
591.076	715.4
591.485	659.4
591.894	663
592.324	684.2
592.733	683.4
593.142	649.8
593.551	664.8
593.96	673.6
594.369	666.8
594.8	660.8
595.209	668.6
595.618	654
596.028	666.2
596.437	655.4
596.847	667.6
597.256	669.2
597.687	672.2
598.097	672
598.507	664.8
598.917	674.8
599.327	669.6
599.736	671
600.146	682.2
600.556	669.6
600.988	681.2
601.398	666.8
601.808	674.4
602.219	651.6
602.629	666.4
603.039	671
603.45	701.2
603.86	681
604.271	685.2
604.703	665.4
605.114	661.6
605.525	675.8
605.935	672.8
606.346	694.4
606.757	679
607.168	678.6
607.579	665.4
607.99	679.2
608.402	677.8
608.813	670.6
609.224	674.8
609.636	657
610.047	661.8
610.48	676.6
610.892	673.2
611.303	685.8
611.715	664.2
612.127	656.2
612.539	661.6
612.95	670.4
613.362	662.4
613.774	653.6
614.186	653.8
614.599	657.6
615.011	674.8
615.423	667.4
615.835	660
616.248	661
616.66	674
617.073	654.2
617.485	660
617.898	678.2
618.311	666.8
618.723	657
619.136	703
619.549	680.8
619.962	697.6
620.375	669.8
620.788	673.4
621.201	663.4
621.614	673.4
622.028	667.4
622.441	673.2
622.854	688.8
623.268	648.6
623.681	672.4
624.095	666.2
624.509	668.2
624.922	677.2
625.336	662
625.728	673.4
626.142	679.2
626.556	680.6
626.97	676.4
627.384	666
627.799	664.6
628.213	686.6
628.627	659
629.041	670.2
629.456	666.6
629.87	663.8
630.285	682
630.699	679.2
631.093	663.4
631.507	685
631.922	672
632.337	680.2
632.752	664.8
633.167	669.4
633.582	660.2
633.997	671
634.412	657.4
634.806	666.8
635.221	665
635.637	679.4
636.052	649.2
636.468	664.8
636.883	683.6
637.299	669.2
637.715	650.4
638.109	670.6
638.525	656.8
638.941	676.8
639.357	669.4
639.773	676
640.189	658.8
640.584	666.4
641	668.2
641.416	658.8
641.832	671.6
642.249	655.4
642.665	664.8
643.06	675
643.477	675.4
643.894	653.4
644.31	672
644.727	664
645.123	670.4
645.54	663.8
645.957	661.2
646.374	691.8
646.77	661.2
647.187	701.8
647.604	670.4
648.021	639.2
648.439	665.2
648.835	672.8
649.252	673.2
649.67	662.4
650.088	665.4
650.484	674.4
650.902	674.6
651.32	663.8
651.738	661
652.134	668
652.552	699.6
652.971	668
653.389	663.8
653.786	680.2
654.204	693.4
654.622	652.8
655.019	672.8
655.438	670.4
655.857	662
656.275	667.2
656.673	661.4
657.091	749.6
657.51	655.4
657.908	672.8
658.327	687.2
658.746	649.6
659.144	666.2
659.563	683
659.982	666
660.38	653
660.8	659.2
661.219	677.8
661.617	672.2
662.037	670
662.457	680.2
662.855	648.4
663.275	694.8
663.695	669.4
664.094	663.6
664.514	671.8
664.934	654.4
665.333	674.4
665.753	661.6
666.152	650.2
666.572	667.6
666.993	684.6
667.392	665.4
667.812	669.8
668.212	666.4
668.632	678.4
669.053	655.8
669.453	676.8
669.874	665.6
670.273	675.2
670.694	658.6
671.116	682.4
671.515	677.4
671.937	672.8
672.337	665.8
672.758	662.6
673.158	684.2
673.58	654.4
673.98	676.4
674.402	679
674.824	671.8
675.224	658.8
675.646	662.4
676.047	659.2
676.469	664.8
676.869	663.4
677.292	667.8
677.693	656.2
678.115	663.8
678.516	672.4
678.939	678
679.34	657
679.762	678
680.164	673
680.586	660.8
680.988	656.6
681.411	701.2
681.812	656
682.236	657.4
682.637	655.6
683.061	651
683.462	659
683.864	660.4
684.288	665
684.69	661.2
685.114	673.4
685.516	672.2
685.94	658.4
686.342	674.2
686.766	653.6
687.168	662
687.571	689.6
687.995	661.2
688.398	650
688.822	661
689.225	685.6
689.628	685.2
690.052	662
690.456	673
690.88	659.2
691.284	655.4
691.687	679.6
692.112	653.2
692.515	654.4
692.919	666
693.344	669.4
693.747	656.4
694.173	660
694.577	679.6
694.98	661.8
695.406	661.6
695.81	672.8
696.214	658
696.64	658.6
697.044	670
697.448	672.4
697.874	660
698.279	660
698.684	647.6
699.11	654.2
699.514	663.4
699.919	657.2
700.324	653.4
700.75	665.2
701.156	661.2
701.561	669.2
701.987	669.6
702.393	676.8
702.798	676.6
703.203	671.8
703.63	658.8
704.036	661.6
704.442	666.4
704.847	658.6
705.274	660.2
705.68	670
706.086	671
706.492	645.8
706.92	659.2
707.326	676.2
707.732	662.4
708.139	655.8
708.545	657
708.973	661
709.38	663.6
709.786	649.2
710.193	678.8
710.6	668.8
711.028	660.6
711.435	666.6
711.842	667
712.249	655
712.656	662.8
713.064	675.4
713.492	653.8
713.9	657.8
714.307	667.8
714.715	667.8
715.123	663
715.53	674
715.938	678.4
716.367	661
716.775	668.2
717.184	653.4
717.592	664.8
718	673.6
718.408	704.2
718.816	715.6
719.225	669.4
719.633	662.6
720.042	653.8
720.472	664.8
720.881	685.2
721.29	665.4
721.699	662.4
722.108	665.4
722.517	659
722.926	667.2
723.335	675.6
723.744	660
724.154	660.6
724.563	661.8
724.973	661.8
725.382	658.6
725.792	666.4
726.202	653
726.612	698.2
727.022	658.6
727.432	653.4
779.813	666.2
780.223	714.4
780.634	665.2
781.044	652.6
781.454	665.4
781.865	678.2
782.276	651.2
782.686	674.2
783.097	663.4
783.508	664.4
783.919	662.6
784.33	678.4
784.741	676.8
785.152	661.6
785.563	646.2
785.974	660.4
786.386	672.6
786.776	654.2
787.188	665.8
787.599	654
788.011	667.2
788.423	662.2
788.835	661.2
789.247	652
789.659	654.6
790.071	662.2
790.483	701.2
790.874	657.2
791.286	668.2
791.699	664.8
792.111	660.8
792.524	663
792.937	659.8
793.349	654.2
793.741	655.2
794.154	652.6
794.567	682
794.98	656.2
795.393	648.6
795.785	680.6
796.198	652.2
796.612	664.6
797.026	656.2
797.439	646.8
797.831	655.4
798.245	652.8
798.659	656
799.073	659.2
799.487	661
799.88	664.6
800.294	659
800.708	665
801.123	663.6
801.516	679.4
801.93	651
802.345	642.8
802.76	665
803.153	675.6
803.568	679.6
803.983	669.8
804.377	665
804.792	647.8
805.207	646.6
805.601	656.8
806.016	699.8
806.432	662.6
806.826	696
807.242	672
807.658	664.2
808.052	657
808.468	652.2
808.884	654.2
809.279	663.6
809.695	676.6
810.111	688.4
810.506	669.2
810.922	676.6
811.339	653.8
811.734	665.6
812.151	653.2
812.546	650.2
812.963	652.8
813.38	665.8
813.776	662.4
814.193	686
814.589	653.8
815.006	654.2
815.402	646.4
815.82	661.2
816.237	659.4
816.633	656.4
817.051	648.4
817.448	666.2
817.866	650.6
818.262	685.8
818.68	660.6
819.077	659.2
819.495	662
819.892	708.8
820.311	647.6
820.708	657.2
821.127	654.6
821.524	672.6
821.943	665.8
822.34	687.4
822.759	668.6
823.157	665.6
823.576	679.4
823.974	667.4
824.393	792.4
824.791	658.4
825.189	659.8
825.609	663.4
826.007	658.2
826.427	653.2
826.826	663.4
827.246	674
827.644	648.2
828.043	670.4
828.463	658.6
828.862	671.6
829.261	669.8
829.682	642.6
830.081	669.2
830.502	658
830.901	668.4
831.301	659.6
831.722	648.4
832.121	663.2
832.521	656.4
832.943	666
833.342	656.6
833.742	644.6
834.164	648.8
834.564	642.4
834.965	656.2
835.386	657.6
835.787	654
836.188	665
836.588	665
837.01	649
837.411	644.8
837.812	671
838.213	661.2
838.636	659.2
839.037	740.4
839.438	658.4
839.84	661
840.263	665
840.664	660.8
841.066	645.6
841.468	664.2
841.891	644.4
842.293	660
842.695	661.6
843.098	672.6
843.5	659.6
843.902	663
844.326	667
844.729	662.8
845.131	666
845.534	654.4
845.937	679.2
846.34	677.4
846.764	661
847.167	663.8
847.571	645.8
847.974	652.8
848.377	660.6
848.781	715.8
849.184	665
849.588	656.4
849.992	653.8
850.396	660
850.821	674.6
851.225	664.8
851.63	657.6
852.034	673.8
852.438	659
852.843	802
853.247	650.4
853.652	658
854.057	687
854.462	665.8
854.867	674
855.272	697.6
855.677	656.8
856.082	652.8
856.487	645.8
