#lambda/nm	C1
208.295	551.6
208.67	502.6
209.045	463.2
209.419	462.2
209.794	691.6
210.169	676
210.544	805.8
210.919	705
211.295	679.4
211.67	689.8
212.045	688
212.421	679.2
212.796	739.4
213.172	689.2
213.547	680
213.923	682
214.299	679.4
214.675	696.8
215.051	685.2
215.427	692.6
215.803	708.8
216.179	692
216.555	686.2
216.932	696.2
217.308	686
217.684	681.8
218.061	690.4
218.438	686.8
218.814	680.4
219.191	695.6
219.568	683.2
219.945	682.2
220.322	693.6
220.699	698.6
221.076	692
221.453	689.4
221.83	678
222.208	679
222.585	682.8
222.962	694
223.34	691
223.717	686.2
224.095	693.4
224.473	697.4
224.851	679.6
225.229	674.4
225.607	703.4
225.985	673.2
226.363	690.6
226.741	699.4
227.119	689
227.497	698.2
227.876	668.8
228.254	700.2
228.633	687.6
229.011	694.2
229.39	694.4
229.769	694
230.148	698.4
230.527	713.2
230.905	692.6
231.284	690.8
231.664	680
232.043	701.8
232.422	703.4
232.801	688
233.181	686.8
233.56	683.6
233.94	683
234.319	679.4
234.699	683.6
235.079	733
235.458	737.4
235.838	710
236.218	682.8
236.598	675
236.978	679
237.358	673.6
237.738	680.2
238.119	698
238.499	684.2
238.88	683.4
239.26	709.2
239.641	675.4
240.021	683.6
240.402	692.2
240.783	686.6
241.163	692
241.544	695
241.925	683.4
242.306	705.2
242.687	684
243.069	686.8
243.45	695
243.831	685.8
244.212	690.6
244.594	723.8
244.975	695.2
245.357	697.8
245.739	680.8
246.12	695.8
246.502	709
246.884	685.2
247.266	675.4
247.648	690.4
248.03	715.4
248.412	693.8
248.794	687.8
249.176	684.2
249.559	691.4
249.941	681.8
250.323	681
250.706	675.6
251.089	690.6
251.471	688.4
251.854	683.4
252.237	688.2
252.62	691.4
253.002	689.6
253.385	692.2
253.769	701
254.152	693
254.535	692.6
254.918	683.8
255.301	685.8
255.685	680.2
256.068	674.2
256.452	719.2
256.835	691.2
257.219	699.2
257.603	692
257.986	683.2
258.37	696.6
258.754	673.6
259.138	700
259.522	704.4
259.906	691
260.29	693.4
260.675	685.2
261.059	689.8
261.443	673.4
261.828	704
262.212	704
262.597	675.2
262.981	681.8
263.366	695.4
263.751	690.6
264.136	682.2
264.521	682
264.906	682.2
265.291	710.2
265.676	688.6
266.061	694.8
266.446	716
266.831	680.2
267.217	711.6
267.602	694.2
267.987	694
268.373	683.6
268.759	697
269.144	691
269.53	698.2
269.916	695.2
270.302	686
270.688	700.4
271.074	687.8
271.46	706.2
271.846	722.4
272.232	687.4
272.618	681.8
273.004	685.4
273.391	698.6
273.777	699.2
274.164	699
274.55	708.8
274.937	694.8
275.324	694.4
275.71	701.6
276.097	702.2
276.484	687.4
276.871	697.6
277.258	699
277.645	676
278.032	689.2
278.419	679.6
278.807	695.8
279.194	684
279.581	688.8
279.969	697.6
280.356	696.4
280.744	690
281.131	711.8
281.519	691
281.907	691.2
282.295	694.8
282.682	701.2
283.07	685
283.458	696.2
283.846	705.4
284.235	698.6
284.623	701.8
285.011	681.8
285.399	691.8
285.788	691.4
286.176	683.2
286.565	708.2
286.953	689.4
287.342	688.6
287.731	682
288.119	683
288.508	689.4
288.897	691.4
289.286	677.6
289.675	697.4
290.064	692.4
290.453	690.4
290.821	688.2
291.21	705.6
291.599	688.2
291.989	693
292.378	687.6
292.768	720
293.157	688
293.547	697.8
293.936	678.2
294.326	677.4
294.716	692
295.106	688.2
295.496	702.6
295.886	698.8
296.276	686
296.666	686.8
297.056	688
297.446	676.8
297.836	711.6
298.227	690.8
298.617	708
299.008	710.8
299.398	696.8
299.789	682.2
300.179	693.8
300.57	709.4
300.961	691.2
301.352	690.8
301.742	707.8
302.133	697.8
302.524	686.8
302.915	699.6
303.307	674.8
303.698	703.4
304.089	698
304.48	687.4
304.872	704
305.263	692.4
305.655	690.4
306.046	704
306.438	699.2
306.829	692.6
307.221	711
307.613	700
308.005	707
308.397	722
308.789	719.4
309.181	718.8
309.573	707.2
309.965	705.4
310.357	692.4
310.749	710
311.142	686.4
311.534	677.4
311.926	707.4
312.319	695.4
312.711	685.8
313.104	715
313.497	692.8
313.889	730.2
314.282	714.8
314.675	722
315.068	701.6
315.461	702.4
315.854	725
316.247	697.4
316.64	684.8
317.033	690.8
317.405	695.8
317.798	690.8
318.192	701
318.585	681
318.979	695.6
319.372	685
319.766	684.8
320.16	702.8
320.553	714.2
320.947	722
321.341	688.6
321.735	689.2
322.129	682.4
322.523	726.6
322.917	678.8
323.311	708
323.705	686.2
324.099	697.4
324.494	714.4
324.888	709.2
325.282	686.4
325.677	702.4
326.071	695.6
326.466	702.4
326.861	685
327.255	705.6
327.65	709.2
328.045	708.6
328.44	697
328.835	686.6
329.23	682.4
329.625	718.6
330.02	687.6
330.415	708.6
330.81	694
331.206	690.4
331.601	691.2
331.996	701.2
332.37	725.2
332.766	678.6
333.161	729.6
333.557	696.6
333.953	699
334.348	1092.4
334.744	694
335.14	678.6
335.536	689
335.932	705
336.328	691.8
336.724	702.8
337.12	692.2
337.516	692.2
337.913	703.2
338.309	708.2
338.705	699.4
339.102	698.6
339.498	694
339.895	715.8
340.291	691.8
340.688	713.2
341.085	681.8
341.481	693
341.878	683.8
342.275	705.8
342.672	686.6
343.069	675.8
343.466	682
343.842	698
344.239	689.4
344.636	688.2
345.033	678.4
345.431	683.6
345.828	680
346.225	691
346.623	725.2
347.02	689.4
347.418	704
347.816	714
348.213	677.8
348.611	695.6
349.009	687.4
349.407	696.8
349.805	678.8
350.203	681.8
350.601	700
350.999	692.6
351.397	767.2
351.795	689.2
352.193	700
352.57	697.6
352.969	707.6
353.367	678
353.766	680.2
354.164	681
354.563	695
354.961	682.6
355.36	692.6
355.759	691.6
356.158	679.2
356.557	681.2
356.956	679.6
357.355	678.2
357.754	686.8
358.153	683.6
358.552	715.8
358.951	686.6
359.35	696.6
359.75	679
360.149	675.8
360.527	675.4
360.926	670.8
361.326	687.6
361.726	680.8
362.125	678.6
362.525	682
362.925	687.4
363.325	693.8
363.724	690.8
364.124	677.8
364.524	665.6
364.924	679.4
365.324	708
365.725	672.4
366.125	692.6
366.525	683.4
366.904	679.6
367.304	666.8
367.705	708
368.105	697.6
368.506	676.2
368.906	684.2
369.307	686.6
369.708	691.4
370.108	672
370.509	694
370.91	678.4
371.311	682.2
371.712	692.6
372.113	675.2
372.514	674.2
372.894	676
373.295	673.6
373.696	702
374.097	693.4
374.499	733
374.9	687.2
375.301	685.6
375.703	684.4
376.105	676.2
376.506	690.8
376.908	686.2
377.309	688.8
377.711	687.6
378.113	686.4
378.493	687
378.895	675.4
379.297	684.6
379.699	677.6
380.102	693.4
380.504	684.2
380.906	689.6
381.308	708.4
381.71	684.6
382.113	696.2
382.515	672
382.918	690.6
383.299	684.8
383.701	690
384.104	692.6
384.507	658
384.909	673.4
385.312	668
385.715	672.4
386.118	681
386.521	672
386.924	695.2
387.327	667.6
387.709	666
388.112	673.6
388.515	674.4
388.918	675.4
389.322	689
389.725	675.6
390.129	704.2
390.532	693.6
390.936	674.4
391.339	676.6
391.743	683.6
392.125	671.6
392.529	688.6
392.933	700.6
393.337	685.6
393.74	679.8
394.144	682.8
394.548	674.4
394.953	686.8
395.357	697
395.761	674.8
396.144	686.4
396.548	680.8
396.952	683.8
397.357	683.6
397.761	673
398.166	678.6
398.57	677.6
398.975	673.2
399.379	688.2
399.763	731
400.168	690.2
400.572	679
400.977	681.2
401.382	704.2
401.787	688.4
402.192	708
402.597	698.2
403.002	673
403.386	705.8
403.791	710.4
404.197	684.4
404.602	689.6
405.007	685
405.413	684.8
405.818	680.4
406.224	676.8
406.608	677.4
407.014	680.2
407.42	707.2
407.825	674.4
408.231	691.6
408.637	700.6
409.043	699
409.449	682.6
409.834	678
410.24	693.2
410.646	701
411.052	691.2
411.458	689.2
411.865	688.8
412.271	692.2
412.677	686.4
413.062	691.8
413.469	674.8
413.875	713.6
414.282	697.8
414.689	684.4
415.095	692
415.502	682.8
415.888	693.8
416.294	675.4
416.701	734.6
417.108	681.2
417.515	695
417.923	685.8
418.33	709.6
418.715	702.2
419.123	686
419.53	677.8
419.937	688
420.345	699.6
420.752	686.2
421.16	702.6
421.546	686.8
421.953	691.4
422.361	673
422.769	695.6
423.177	679
423.585	718.2
423.992	714.4
424.379	695.6
424.787	694.8
425.195	710.6
425.603	685.6
426.011	710.8
426.419	702.4
426.806	698.8
427.214	690
427.623	697.4
428.031	707.6
428.44	691.8
428.848	704.6
429.235	705.2
429.644	688.2
430.053	682.6
430.461	700.8
430.87	722
431.279	709.6
431.666	684.8
432.075	687.8
432.484	701.6
432.893	686.2
433.302	717.2
433.711	750.4
434.099	697.6
434.508	690.2
434.918	683.4
435.327	709.6
435.737	704.6
436.125	695.8
436.534	701.4
436.944	705.4
437.353	707.8
437.763	728.2
438.173	707
438.561	723
438.971	692.4
439.381	721
439.791	712.8
440.201	698
440.589	726.4
440.999	725.2
441.409	732.4
441.819	710
442.23	728
442.619	737.4
443.029	719
443.439	732.2
443.85	736.2
444.26	748
444.649	737.8
445.06	726.6
445.471	728.2
445.881	733.8
446.292	752.2
446.682	765.4
447.092	720.2
447.503	795.8
447.914	741.8
448.325	725.6
448.715	744.2
449.126	728
449.537	736.8
449.948	734
450.338	740.4
450.75	744.8
451.161	745.4
451.572	751.2
451.984	739.4
452.374	725.2
452.786	743.6
453.197	752
453.609	760.6
453.999	738.6
454.411	739
454.823	752.6
455.235	745.4
455.647	746.8
456.037	749.2
456.449	730.2
456.862	751.8
457.274	742.8
457.665	732.6
458.077	743.6
458.489	781.4
458.902	739.4
459.293	746
459.705	745.2
460.118	746
460.53	756.2
460.921	747.4
461.334	754.2
461.747	752.8
462.16	774.8
462.551	764.8
462.964	757
463.377	733.6
463.79	742.2
464.182	748.6
464.595	740
465.008	750.4
465.421	758
465.813	749.8
466.226	757.4
466.64	740.8
467.053	805.2
467.445	762
467.859	772.2
468.272	753.6
468.686	762.8
469.078	757.2
469.492	744.8
469.906	759.6
470.298	756.8
470.712	747.8
471.126	813.4
471.54	733.6
471.933	740.6
472.347	745.6
472.761	748.2
473.175	738.6
473.568	745.4
473.982	736
474.397	753
474.79	747.8
475.204	758
475.619	754
476.033	747.4
476.426	746
476.841	741.2
477.256	776.4
477.649	734.6
478.064	740.2
478.479	742.8
478.872	737
479.287	734.8
479.702	732.6
480.118	745.2
480.511	748.8
480.927	738.6
481.342	747.8
481.736	738
482.151	731.2
482.566	746
482.96	740.6
483.376	754
483.792	740.2
484.186	747.4
484.602	745.4
485.017	734.6
485.412	749.4
485.827	748.8
486.243	745.8
486.638	773.2
487.054	742
487.47	762
487.865	734
488.281	733.8
488.697	739.4
489.092	737.4
489.508	720.6
489.925	750.6
490.32	723.4
490.736	750.2
491.153	742.4
491.548	740.8
491.964	762
492.381	717.4
492.776	742
493.193	729.4
493.61	744.8
494.006	731.6
494.422	746.4
494.84	724.4
495.235	739.6
495.652	735
496.069	727.2
496.465	726.6
496.883	727.8
497.3	747.6
497.696	720.2
498.113	747.2
498.509	708
498.927	706.2
499.344	723
499.741	721
500.158	734.2
500.576	744.6
500.973	731
501.39	719.4
501.787	713.2
502.205	728.6
502.623	715.4
503.02	710.2
503.438	723.6
503.856	718.2
504.253	726.8
504.671	726.6
505.068	720.2
505.486	727.4
505.905	750.6
506.302	723.2
506.72	732.4
507.118	721.2
507.536	725.8
507.955	717.6
508.352	719.4
508.771	729.4
509.169	726
509.587	712.2
510.006	715
510.404	706.6
510.823	709.6
511.221	717.2
511.64	710.2
512.038	727
512.457	715.4
512.877	701.2
513.275	697.8
513.694	708.2
514.092	715.8
514.512	716.2
514.91	713
515.33	704.8
515.749	710.4
516.148	713.6
516.568	711.6
516.966	706.4
517.386	698.8
517.785	703.8
518.205	704.2
518.603	701.2
519.024	706.8
519.444	722.6
519.843	715
520.263	722.4
520.662	714.2
521.082	701.6
521.481	714.4
521.902	699.4
522.301	709.4
522.722	713.8
523.121	702
523.542	698.4
523.963	699.8
524.362	713.2
524.783	706.4
525.183	696.8
525.604	709.8
526.003	700
526.425	698.2
526.824	704.2
527.246	707.6
527.646	713.6
528.067	695.2
528.467	703.4
528.888	709.2
529.289	704
529.71	705
530.11	702.2
530.532	695.6
530.932	684.2
531.354	684.2
531.755	730.2
532.176	693.6
532.577	691.2
532.999	697.8
533.4	684
533.822	701.2
534.223	698.6
534.645	685.8
535.046	694.4
535.468	687.6
535.869	698.4
536.292	685.4
536.693	725
537.115	696.8
537.516	685.2
537.939	685.6
538.34	706.4
538.742	704.6
539.165	687.4
539.566	695
539.989	687.2
540.391	684.2
540.814	686.4
541.216	692.8
541.639	692.8
542.041	699.8
542.464	686.2
542.866	686
543.268	667.8
543.691	694.2
544.093	699.4
544.517	705
544.919	677.2
545.343	713.6
545.745	683.8
546.147	691.4
546.571	689.8
546.974	686.6
547.398	695.4
547.8	702.2
548.224	684.6
548.627	679.6
549.03	689
549.454	687.6
549.857	669.8
550.281	680.8
550.684	681.4
551.087	698.6
551.512	689
551.915	683.6
552.34	685.6
552.743	681
553.146	691
553.571	690.6
553.975	710.8
554.399	679.8
554.803	738.8
555.207	686
555.632	678.8
556.036	685
556.461	676.4
556.865	692.6
557.268	672.4
557.694	684.8
558.098	678.4
558.502	681.4
558.927	667.2
559.332	685.8
559.736	687.2
560.162	686.4
560.566	684.4
560.992	686
561.396	682.2
561.801	685.2
562.227	682.6
562.631	680.2
563.036	678.4
563.462	690.2
563.867	684
564.272	660.4
564.698	676
565.103	667.4
565.508	697.4
565.935	676.4
566.34	678.2
566.745	695
567.172	672.8
567.577	697.8
567.982	683.4
568.409	675.6
568.815	671.8
569.22	674
569.626	684
570.053	661.4
570.459	685
570.865	675.6
571.292	681.8
571.698	688.2
572.104	657.8
572.531	673.2
572.937	682.4
573.343	679.8
573.75	668.8
574.177	680
574.583	687.2
574.99	675
575.396	685.8
575.824	677.2
576.231	684.8
576.637	667.6
577.065	700.8
577.472	670.8
577.879	675.8
578.286	700
578.714	669.6
579.121	681.6
579.528	672.8
579.935	692.6
580.364	679
580.771	650.2
581.178	664.2
581.585	678.2
582.014	674.6
582.421	673.6
582.829	680.6
583.236	682.8
583.644	668.6
584.073	668.6
584.481	680.2
584.889	666
585.296	677.6
585.726	673.6
586.134	674
586.542	665
586.95	697.8
587.358	661.4
587.787	685.4
588.196	663
588.604	676.2
589.012	676.8
589.421	667
589.851	670.2
590.259	675.8
590.668	673.2
591.076	713.2
591.485	672.8
591.894	668.4
592.324	696
592.733	692.2
593.142	658.4
593.551	664.2
593.96	683.8
594.369	665
594.8	669.6
595.209	667.4
595.618	657
596.028	663.8
596.437	672
596.847	670.8
597.256	671.4
597.687	674
598.097	674.8
598.507	660
598.917	674
599.327	683.2
599.736	668.8
600.146	681.2
600.556	672
600.988	675.8
601.398	663.2
601.808	682.8
602.219	647.4
602.629	665.8
603.039	675.8
603.45	708.4
603.86	666.4
604.271	684.4
604.703	673.6
605.114	670.2
605.525	675
605.935	675.8
606.346	695.4
606.757	686
607.168	664.4
607.579	666.2
607.99	692.4
608.402	670.2
608.813	674.4
609.224	658
609.636	661
610.047	663.8
610.48	666
610.892	668.2
611.303	684
611.715	673
612.127	664
612.539	674.8
612.95	672
613.362	653.4
613.774	654.8
614.186	657.6
614.599	666.2
615.011	683
615.423	666.6
615.835	663.4
616.248	664.6
616.66	674.6
617.073	665.8
617.485	662.2
617.898	674.6
618.311	672.6
618.723	667.6
619.136	707
619.549	682.4
619.962	696.6
620.375	672.4
620.788	676.6
621.201	662.6
621.614	677.2
622.028	674
622.441	672.8
622.854	688.2
623.268	664
623.681	692.2
624.095	668.6
624.509	678.8
624.922	680.2
625.336	657.4
625.728	659.4
626.142	679.6
626.556	681
626.97	679.2
627.384	664.8
627.799	662.4
628.213	682.2
628.627	669.2
629.041	668.8
629.456	662.6
629.87	668.2
630.285	677.2
630.699	671.2
631.093	667.8
631.507	675
631.922	675.2
632.337	687.4
632.752	661.4
633.167	667.8
633.582	667.6
633.997	649.6
634.412	663.4
634.806	666.8
635.221	658.6
635.637	682.4
636.052	661.4
636.468	668.4
636.883	675.6
637.299	664.8
637.715	648.6
638.109	658.4
638.525	646.2
638.941	677.4
639.357	667.4
639.773	670
640.189	653.4
640.584	653.4
641	668.2
641.416	644.4
641.832	662.8
642.249	668.8
642.665	669.2
643.06	675.4
643.477	673.6
643.894	654.8
644.31	657.8
644.727	666.4
645.123	663.6
645.54	663.4
645.957	662.2
646.374	679.6
646.77	665.8
647.187	704
647.604	671.6
648.021	649.2
648.439	666
648.835	674
649.252	673.2
649.67	669
650.088	668
650.484	672.6
650.902	670.8
651.32	673
651.738	662.2
652.134	665.2
652.552	682
652.971	674.2
653.389	667.6
653.786	678
654.204	681.8
654.622	650.2
655.019	662.4
655.438	667.4
655.857	669.6
656.275	663.6
656.673	655.8
657.091	753
657.51	659.8
657.908	675.8
658.327	688.6
658.746	657
659.144	663.6
659.563	680.2
659.982	664.4
660.38	660.4
660.8	664.8
661.219	678.8
661.617	666.2
662.037	662.6
662.457	678.2
662.855	656
663.275	697.2
663.695	668.8
664.094	670.2
664.514	665.6
664.934	664
665.333	674.6
665.753	651
666.152	662.6
666.572	649.6
666.993	671.2
667.392	654.6
667.812	659.6
668.212	667.8
668.632	673.4
669.053	661.4
669.453	688.2
669.874	671
670.273	668.4
670.694	655.2
671.116	674
671.515	671
671.937	659.4
672.337	660.8
672.758	656.2
673.158	672.6
673.58	652.8
673.98	664.4
674.402	673
674.824	661
675.224	654.6
675.646	650.8
676.047	646.8
676.469	670
676.869	676.8
677.292	673.8
677.693	659.8
678.115	656.4
678.516	668.2
678.939	665.2
679.34	665.8
679.762	682.6
680.164	673.2
680.586	652.4
680.988	667
681.411	687.4
681.812	660.2
682.236	647.8
682.637	660.8
683.061	651.4
683.462	657
683.864	662
684.288	676.2
684.69	654.8
685.114	681.8
685.516	679
685.94	658
686.342	677.6
686.766	660.6
687.168	655.8
687.571	679.2
687.995	662.8
688.398	655.4
688.822	663.6
689.225	678.2
689.628	680.4
690.052	661.2
690.456	666.4
690.88	658
691.284	653.6
691.687	663.4
692.112	653.4
692.515	658.2
692.919	671.8
693.344	667.2
693.747	662
694.173	657.2
694.577	674
694.98	657.6
695.406	664.2
695.81	673
696.214	664.2
696.64	667.8
697.044	669.6
697.448	685.2
697.874	658.2
698.279	664.4
698.684	660.4
699.11	650.4
699.514	661.6
699.919	659.4
700.324	659.2
700.75	667.4
701.156	661.4
701.561	670.6
701.987	666.4
702.393	672
702.798	687.2
703.203	662
703.63	652.8
704.036	661
704.442	662.4
704.847	657.8
705.274	660.8
705.68	668
706.086	676.4
706.492	648.4
706.92	668
707.326	668
707.732	659.4
708.139	659.6
708.545	649.8
708.973	667.2
709.38	660.4
709.786	647.4
710.193	684
710.6	668.8
711.028	657
711.435	670.4
711.842	659.8
712.249	649
712.656	659
713.064	681.6
713.492	651
713.9	665.4
714.307	670.8
714.715	665.8
715.123	659.8
715.53	667
715.938	672
716.367	671.4
716.775	658
717.184	659
717.592	674.6
718	678.2
718.408	702.6
718.816	713.8
719.225	666.6
719.633	668.8
720.042	657
720.472	665.4
720.881	682
721.29	668.4
721.699	661.2
722.108	670
722.517	666.6
722.926	667.4
723.335	683.6
723.744	662.8
724.154	671
724.563	668
724.973	657.8
725.382	666.8
725.792	667.4
726.202	657.6
726.612	678.8
727.022	671.2
727.432	666
779.813	660
780.223	718.8
780.634	653.8
781.044	652.2
781.454	663
781.865	674.8
782.276	652.8
782.686	672.6
783.097	668.2
783.508	660.4
783.919	669.2
784.33	668.6
784.741	678.6
785.152	652.8
785.563	649.6
785.974	661
786.386	680.4
786.776	659
787.188	666.6
787.599	658.8
788.011	674
788.423	671.6
788.835	654.2
789.247	651.4
789.659	660
790.071	651.6
790.483	700.4
790.874	653.2
791.286	669
791.699	656
792.111	659.8
792.524	656.2
792.937	645.8
793.349	647.2
793.741	651.8
794.154	655.2
794.567	673.8
794.98	657
795.393	633.8
795.785	671.6
796.198	656.2
796.612	661.8
797.026	652.6
797.439	644.6
797.831	658.8
798.245	646.8
798.659	648.8
799.073	657.6
799.487	658.4
799.88	664.4
800.294	661.6
800.708	668.4
801.123	669.8
801.516	680
801.93	641.8
802.345	638.8
802.76	659.8
803.153	671.6
803.568	674.2
803.983	673
804.377	664.8
804.792	649.8
805.207	646.8
805.601	664
806.016	698.4
806.432	652.6
806.826	693
807.242	683.8
807.658	668.8
808.052	658
808.468	657.2
808.884	662.4
809.279	662.2
809.695	675.8
810.111	681.4
810.506	663.6
810.922	684
811.339	662
811.734	669.4
812.151	659
812.546	656
812.963	651
813.38	666.4
813.776	664.4
814.193	689.4
814.589	658
815.006	658.6
815.402	647.6
815.82	652.6
816.237	664.8
816.633	661.2
817.051	644.4
817.448	660.6
817.866	653.2
818.262	679
818.68	649.8
819.077	656
819.495	654.8
819.892	710.8
820.311	650.6
820.708	664.2
821.127	659.4
821.524	665
821.943	662
822.34	676
822.759	665.8
823.157	666.6
823.576	674.6
823.974	665.8
824.393	788.2
824.791	659.8
825.189	651.4
825.609	648.2
826.007	651.6
826.427	646.2
826.826	663
827.246	662.8
827.644	635.2
828.043	669.6
828.463	654.2
828.862	672.4
829.261	672.8
829.682	645.8
830.081	660
830.502	655
830.901	664.4
831.301	651
831.722	651.8
832.121	651
832.521	651.8
832.943	654.6
833.342	660.8
833.742	655.8
834.164	664.8
834.564	649.4
834.965	665.2
835.386	653
835.787	659.4
836.188	661.4
836.588	664.6
837.01	661.8
837.411	644
837.812	673.4
838.213	661.8
838.636	659.8
839.037	738.6
839.438	664
839.84	658.8
840.263	670.4
840.664	658.8
841.066	654.2
841.468	656.6
841.891	650
842.293	668
842.695	667.8
843.098	670.4
843.5	666.2
843.902	666.6
844.326	661.2
844.729	664.2
845.131	665.6
845.534	658.6
845.937	669.8
846.34	674.8
846.764	659.2
847.167	669
847.571	648
847.974	657.2
848.377	658.2
848.781	711.2
849.184	665.4
849.588	660
849.992	653
850.396	659.8
850.821	676.4
851.225	659.2
851.63	655.2
852.034	676.6
852.438	661
852.843	796.2
853.247	652.8
853.652	652.6
854.057	679.6
854.462	668.4
854.867	666.8
855.272	686.2
855.677	665.2
856.082	657.8
856.487	650.2
856.893	660
857.298	659.2
857.704	647
