#lambda/nm	C1
208.295	548.2
208.67	494.8
209.045	461
209.419	459.2
209.794	693.2
210.169	672.8
210.544	806.8
210.919	697.6
211.295	680.6
211.67	693.6
212.045	693
212.421	680
212.796	736.8
213.172	682.4
213.547	688.4
213.923	693
214.299	679.4
214.675	698.4
215.051	701.4
215.427	686.6
215.803	708.2
216.179	683.8
216.555	680
216.932	699.6
217.308	691.2
217.684	686
218.061	688.4
218.438	692.4
218.814	684.8
219.191	687.6
219.568	680
219.945	686.6
220.322	689.8
220.699	693.4
221.076	701.2
221.453	694.2
221.83	688.2
222.208	692.2
222.585	693
222.962	698.6
223.34	697.6
223.717	690.6
224.095	689
224.473	684.4
224.851	693
225.229	677.2
225.607	708
225.985	674.6
226.363	692
226.741	691
227.119	681.6
227.497	704.2
227.876	674.8
228.254	694
228.633	700.2
229.011	701
229.39	693.8
229.769	691.2
230.148	697.2
230.527	715.2
230.905	690.6
231.284	696.2
231.664	689.6
232.043	703.6
232.422	705
232.801	684
233.181	696.8
233.56	684.8
233.94	693
234.319	677.6
234.699	689.8
235.079	740
235.458	742.2
235.838	716.8
236.218	684.8
236.598	683.6
236.978	690.2
237.358	678
237.738	684.8
238.119	698.2
238.499	683.6
238.88	690
239.26	714
239.641	675.6
240.021	697.2
240.402	688.4
240.783	683.8
241.163	684.4
241.544	695.8
241.925	695.6
242.306	709.6
242.687	683.6
243.069	686.6
243.45	709.6
243.831	680.4
244.212	686
244.594	730.2
244.975	702.4
245.357	687.6
245.739	682.8
246.12	696.8
246.502	704.8
246.884	685.2
247.266	687.2
247.648	685.4
248.03	721.2
248.412	694
248.794	698.8
249.176	692.4
249.559	706.8
249.941	674.2
250.323	685
250.706	684.6
251.089	687.8
251.471	687.8
251.854	689
252.237	688.2
252.62	695.6
253.002	697.8
253.385	686
253.769	712.4
254.152	691.8
254.535	702
254.918	690.2
255.301	685.6
255.685	688
256.068	683.8
256.452	719.4
256.835	702.6
257.219	698.4
257.603	704.4
257.986	682.6
258.37	702.6
258.754	676.2
259.138	696.8
259.522	706.4
259.906	696.8
260.29	708.4
260.675	692.8
261.059	696.2
261.443	676.6
261.828	695.2
262.212	692.6
262.597	677.8
262.981	685.6
263.366	695.6
263.751	692.4
264.136	681
264.521	690.4
264.906	679.8
265.291	707
265.676	683.2
266.061	699.6
266.446	713.8
266.831	691.8
267.217	720.8
267.602	688.6
267.987	692.8
268.373	686.6
268.759	703.8
269.144	698.4
269.53	689.8
269.916	678.4
270.302	684
270.688	698
271.074	693.2
271.46	703.6
271.846	737.6
272.232	682
272.618	689
273.004	690.4
273.391	703.6
273.777	717.4
274.164	690.2
274.55	717.4
274.937	692.6
275.324	697
275.71	704.8
276.097	699
276.484	680
276.871	698.6
277.258	695.2
277.645	682.2
278.032	690.2
278.419	691.8
278.807	701
279.194	687.2
279.581	687.8
279.969	698.8
280.356	693.2
280.744	693.2
281.131	718.4
281.519	701.4
281.907	684.2
282.295	690.6
282.682	708.4
283.07	693.6
283.458	694.8
283.846	705.6
284.235	706.2
284.623	702.6
285.011	686.4
285.399	694
285.788	693
286.176	670.4
286.565	704
286.953	685.6
287.342	687.8
287.731	682.2
288.119	675.8
288.508	689.4
288.897	695.2
289.286	674.4
289.675	689.4
290.064	696.4
290.453	685.2
290.821	681.4
291.21	710.8
291.599	687
291.989	691.4
292.378	704.2
292.768	713.8
293.157	686
293.547	708.6
293.936	693.4
294.326	678.6
294.716	696.8
295.106	685.2
295.496	704
295.886	702.8
296.276	687.6
296.666	688.2
297.056	692.8
297.446	675.8
297.836	706
298.227	693.2
298.617	692.2
299.008	712.6
299.398	693.2
299.789	687.8
300.179	695.4
300.57	709.6
300.961	691.2
301.352	691.4
301.742	701.4
302.133	686
302.524	694.4
302.915	696.6
303.307	681.6
303.698	704
304.089	711.8
304.48	695.6
304.872	695.8
305.263	689.4
305.655	689.4
306.046	701
306.438	702.8
306.829	677.2
307.221	695.6
307.613	695.4
308.005	704.4
308.397	704.6
308.789	714.2
309.181	724.6
309.573	712.4
309.965	696.6
310.357	690.2
310.749	706.2
311.142	687
311.534	691.6
311.926	697.2
312.319	696.8
312.711	685
313.104	706.6
313.497	691
313.889	727.4
314.282	710.6
314.675	725
315.068	697
315.461	710.2
315.854	736.2
316.247	694.6
316.64	690.2
317.033	697.8
317.405	703.2
317.798	694.2
318.192	702.4
318.585	683.2
318.979	698.6
319.372	682.4
319.766	700.6
320.16	704
320.553	715.6
320.947	725.6
321.341	698.8
321.735	692.8
322.129	682.8
322.523	723.4
322.917	681.2
323.311	721.4
323.705	696.4
324.099	704.8
324.494	716.6
324.888	714.2
325.282	687.6
325.677	706.6
326.071	706.6
326.466	700.2
326.861	706.2
327.255	717.4
327.65	716
328.045	716.6
328.44	703
328.835	699.2
329.23	685.8
329.625	723.8
330.02	690.6
330.415	716.8
330.81	696.2
331.206	701.4
331.601	689.4
331.996	700.4
332.37	721.2
332.766	686.4
333.161	730.6
333.557	685.8
333.953	692.4
334.348	1075.8
334.744	692.4
335.14	693.2
335.536	692.8
335.932	705.4
336.328	700
336.724	696.6
337.12	700.4
337.516	703.2
337.913	694.8
338.309	715.8
338.705	685.8
339.102	714.4
339.498	692
339.895	712
340.291	690.4
340.688	709.2
341.085	685.2
341.481	697.6
341.878	696.8
342.275	721.6
342.672	691.6
343.069	690.2
343.466	683.4
343.842	704.6
344.239	692.8
344.636	692.4
345.033	686.2
345.431	694.4
345.828	696
346.225	698.6
346.623	728.2
347.02	701.8
347.418	701
347.816	703.8
348.213	678.8
348.611	699
349.009	689.2
349.407	704.6
349.805	676.2
350.203	672
350.601	704.6
350.999	691.8
351.397	739.4
351.795	686
352.193	703.4
352.57	700.6
352.969	704.2
353.367	683.6
353.766	683.8
354.164	686.4
354.563	701.6
354.961	685.4
355.36	686.8
355.759	700.4
356.158	684.2
356.557	698
356.956	675.4
357.355	673.4
357.754	696.4
358.153	685.8
358.552	726.2
358.951	691
359.35	704
359.75	687.8
360.149	686.8
360.527	674.6
360.926	678.6
361.326	680.6
361.726	692.6
362.125	674.4
362.525	698
362.925	686.6
363.325	688.8
363.724	693.2
364.124	683.6
364.524	683.6
364.924	681
365.324	707.6
365.725	682.8
366.125	689.4
366.525	686.6
366.904	688.2
367.304	675.6
367.705	709
368.105	709.8
368.506	683.6
368.906	695.2
369.307	683.6
369.708	694.4
370.108	673.2
370.509	693
370.91	680.8
371.311	694
371.712	686.4
372.113	678.4
372.514	673.4
372.894	689.6
373.295	677.6
373.696	697
374.097	696.6
374.499	715.6
374.9	687.2
375.301	681.2
375.703	687.8
376.105	669.4
376.506	688
376.908	689.6
377.309	685
377.711	691.6
378.113	671.6
378.493	684.6
378.895	684.4
379.297	693.8
379.699	671.2
380.102	685.2
380.504	686.4
380.906	674.4
381.308	719.4
381.71	692
382.113	696
382.515	682
382.918	694.4
383.299	684.6
383.701	695
384.104	685.8
384.507	663
384.909	690.2
385.312	673.2
385.715	678
386.118	681
386.521	674
386.924	693.4
387.327	676.4
387.709	667.8
388.112	660.4
388.515	677.6
388.918	676.8
389.322	692.8
389.725	677.4
390.129	717.8
390.532	682.8
390.936	678.2
391.339	677.8
391.743	692
392.125	666
392.529	694.8
392.933	708.2
393.337	689
393.74	688.4
394.144	688.2
394.548	675.6
394.953	688.4
395.357	685.6
395.761	679
396.144	687.6
396.548	685
396.952	679.4
397.357	681
397.761	674.6
398.166	679.2
398.57	678
398.975	674.4
399.379	696.8
399.763	738.6
400.168	682.8
400.572	685.6
400.977	682.4
401.382	710.6
401.787	706.6
402.192	708.2
402.597	707.2
403.002	680.2
403.386	698.8
403.791	704
404.197	680.4
404.602	684.2
405.007	697.4
405.413	685.4
405.818	689.2
406.224	679.2
406.608	686.6
407.014	672.6
407.42	701.2
407.825	668.4
408.231	699.2
408.637	689
409.043	700
409.449	681.4
409.834	680.4
410.24	682
410.646	702.4
411.052	702.2
411.458	690
411.865	687.2
412.271	697.8
412.677	687.4
413.062	690
413.469	677.6
413.875	715.6
414.282	695.8
414.689	681
415.095	703.2
415.502	683.4
415.888	685.2
416.294	670.4
416.701	727.2
417.108	686.2
417.515	700.4
417.923	678.6
418.33	706
418.715	693.8
419.123	686.8
419.53	687.2
419.937	693
420.345	718
420.752	684.8
421.16	702.8
421.546	688.2
421.953	688.8
422.361	681.6
422.769	690.4
423.177	681.2
423.585	723
423.992	711.4
424.379	694.6
424.787	695.2
425.195	709
425.603	696.6
426.011	703.2
426.419	700
426.806	688
427.214	693.2
427.623	712.8
428.031	713.2
428.44	695.8
428.848	703.6
429.235	710.6
429.644	693.6
430.053	696.6
430.461	711.8
430.87	726.2
431.279	692.8
431.666	685.6
432.075	689.2
432.484	700.2
432.893	696.8
433.302	718.4
433.711	741.4
434.099	694.2
434.508	686
434.918	675.2
435.327	695.8
435.737	679.2
436.125	695.2
436.534	689.4
436.944	680.8
437.353	696.8
437.763	712.8
438.173	677.8
438.561	702.2
438.971	663
439.381	680.4
439.791	693.2
440.201	668
440.589	689.8
440.999	696
441.409	694.4
441.819	676.2
442.23	698.8
442.619	699.8
443.029	686.2
443.439	700.6
443.85	715.6
444.26	706.2
444.649	706.2
445.06	693.4
445.471	687.6
445.881	700.2
446.292	714
446.682	712.4
447.092	675.6
447.503	761.8
447.914	697
448.325	706
448.715	708.8
449.126	696.8
449.537	699.4
449.948	697.4
450.338	705.4
450.75	699.4
451.161	700
451.572	710
451.984	692.2
452.374	674.8
452.786	691
453.197	697.2
453.609	704.2
453.999	679.4
454.411	684.8
454.823	711
455.235	700.6
455.647	693.2
456.037	700
456.449	674.4
456.862	700.6
457.274	705.6
457.665	693.4
458.077	708.4
458.489	739.4
458.902	691.8
459.293	701
459.705	691.4
460.118	691.8
460.53	706.2
460.921	700.6
461.334	709.4
461.747	703
462.16	717.2
462.551	717.6
462.964	713.8
463.377	682.8
463.79	701.6
464.182	710.6
464.595	693.2
465.008	715.8
465.421	706.4
465.813	694
466.226	706
466.64	695.2
467.053	755.6
467.445	719.6
467.859	721.4
468.272	711.6
468.686	720
469.078	704.8
469.492	695.6
469.906	696.4
470.298	715.4
470.712	688.2
471.126	767.6
471.54	689.6
471.933	691.8
472.347	701.2
472.761	693.2
473.175	692.4
473.568	697.4
473.982	699.4
474.397	701.2
474.79	703.2
475.204	704.4
475.619	699.8
476.033	697.4
476.426	700.8
476.841	688.6
477.256	737.8
477.649	690
478.064	689.4
478.479	697.6
478.872	684.8
479.287	675.6
479.702	692.8
480.118	691.6
480.511	696.6
480.927	698.2
481.342	688.2
481.736	705
482.151	687.2
482.566	713
482.96	703.8
483.376	715.2
483.792	694.2
484.186	698.4
484.602	691.6
485.017	706.6
485.412	701
485.827	698.6
486.243	705.8
486.638	730.4
487.054	705.2
487.47	706.4
487.865	701
488.281	691.2
488.697	687
489.092	701.2
489.508	691.6
489.925	704.4
490.32	689
490.736	699.2
491.153	696.8
491.548	697.2
491.964	709.8
492.381	679.6
492.776	704.2
493.193	695.6
493.61	702.2
494.006	692.2
494.422	699.8
494.84	683.6
495.235	712.2
495.652	696.2
496.069	699
496.465	697.2
496.883	700
497.3	717.8
497.696	691.6
498.113	702.8
498.509	684.2
498.927	677.4
499.344	688.2
499.741	677.8
500.158	696.8
500.576	706.2
500.973	696.6
501.39	680.8
501.787	684.6
502.205	694.6
502.623	690.8
503.02	674.4
503.438	689.2
503.856	681.8
504.253	696.6
504.671	691.6
505.068	687.8
505.486	692
505.905	709.6
506.302	691.8
506.72	704.2
507.118	686.2
507.536	688.8
507.955	698
508.352	697.2
508.771	704.2
509.169	702.2
509.587	685.8
510.006	689.2
510.404	681.4
510.823	681
511.221	684.4
511.64	693.8
512.038	707.6
512.457	694.2
512.877	694
513.275	680.4
513.694	688
514.092	684.4
514.512	692.2
514.91	685.4
515.33	686.2
515.749	686.6
516.148	686.2
516.568	686.4
516.966	681.2
517.386	681.2
517.785	683
518.205	681
518.603	680
519.024	683
519.444	685.8
519.843	696.4
520.263	697.6
520.662	693.8
521.082	678
521.481	689.4
521.902	683.6
522.301	692.4
522.722	690.8
523.121	685
523.542	680.4
523.963	681.2
524.362	690.4
524.783	692.8
525.183	685.2
525.604	695.4
526.003	687.8
526.425	672.6
526.824	689.4
527.246	693.6
527.646	690.2
528.067	683.4
528.467	677.2
528.888	678
529.289	677.8
529.71	679.4
530.11	676.6
530.532	669.6
530.932	680
531.354	678.6
531.755	725.6
532.176	684.2
532.577	690
532.999	685
533.4	693.4
533.822	691.2
534.223	686.2
534.645	685.8
535.046	687
535.468	688.2
535.869	695.6
536.292	691
536.693	717.8
537.115	685.8
537.516	677
537.939	684.2
538.34	696.6
538.742	691.4
539.165	671.4
539.566	686.6
539.989	675.2
540.391	666.6
540.814	682.8
541.216	681.8
541.639	678.8
542.041	692.2
542.464	678
542.866	670.2
543.268	667.4
543.691	686.8
544.093	687.2
544.517	705.4
544.919	676.8
545.343	702.4
545.745	671
546.147	686.8
546.571	671.6
546.974	669
547.398	681.2
547.8	686.6
548.224	677.4
548.627	671.8
549.03	679.6
549.454	671.6
549.857	662.8
550.281	673.6
550.684	668.4
551.087	694.6
551.512	682.2
551.915	693.8
552.34	680
552.743	670
553.146	683.6
553.571	680.6
553.975	701.8
554.399	667.8
554.803	729.4
555.207	679.4
555.632	665.8
556.036	681
556.461	666.2
556.865	676
557.268	664
557.694	674.8
558.098	675.4
558.502	676
558.927	666.2
559.332	671.6
559.736	679.4
560.162	674.6
560.566	670.8
560.992	685
561.396	678.8
561.801	677
562.227	677.4
562.631	675.2
563.036	679.2
563.462	684
563.867	672.8
564.272	665.2
564.698	674.6
565.103	665.2
565.508	694.6
565.935	669.2
566.34	669.6
566.745	692
567.172	670.2
567.577	698.6
567.982	699.4
568.409	682.8
568.815	665.2
569.22	678.2
569.626	672.2
570.053	660.2
570.459	678.6
570.865	683.4
571.292	681.6
571.698	678.4
572.104	653.8
572.531	676.2
572.937	692.4
573.343	674.4
573.75	669.4
574.177	668.6
574.583	686.2
574.99	675.2
575.396	681.6
575.824	670.4
576.231	682
576.637	667.2
577.065	707.6
577.472	676
577.879	670.8
578.286	697.6
578.714	675.8
579.121	667.2
579.528	675.6
579.935	677.6
580.364	675.8
580.771	651
581.178	667.8
581.585	675.2
582.014	678.2
582.421	670.8
582.829	664.6
583.236	685.6
583.644	670.4
584.073	672.8
584.481	667.8
584.889	663.8
585.296	668.6
585.726	671.4
586.134	659.4
586.542	670.6
586.95	689
587.358	659.4
587.787	669.6
588.196	653.8
588.604	673.8
589.012	672.6
589.421	665
589.851	660.8
590.259	674.2
590.668	669.4
591.076	709.8
591.485	662
591.894	676
592.324	688.2
592.733	684.4
593.142	652.4
593.551	666.8
593.96	713.8
594.369	656.6
594.8	660.2
595.209	661.6
595.618	645.4
596.028	669.2
596.437	656.8
596.847	669.6
597.256	674.2
597.687	682.2
598.097	670
598.507	660.4
598.917	667.8
599.327	686.4
599.736	675.2
600.146	691
600.556	667.8
600.988	686.8
601.398	673.6
601.808	679.8
602.219	654
602.629	667.6
603.039	673.2
603.45	695.2
603.86	677
604.271	688.2
604.703	672.2
605.114	668
605.525	671.4
605.935	681.2
606.346	701.8
606.757	667.2
607.168	670.2
607.579	661.8
607.99	694.6
608.402	676.2
608.813	677
609.224	671.6
609.636	659
610.047	651.8
610.48	677.8
610.892	679.2
611.303	683.8
611.715	670.2
612.127	665.8
612.539	667.2
612.95	674.4
613.362	656.6
613.774	659
614.186	673.6
614.599	657.8
615.011	677.4
615.423	671.6
615.835	658.6
616.248	658.6
616.66	668.8
617.073	660.4
617.485	671.2
617.898	674
618.311	672.4
618.723	666.2
619.136	705.8
619.549	680
619.962	687.4
620.375	663
620.788	673.2
621.201	666
621.614	676.2
622.028	664.4
622.441	660.4
622.854	679.4
623.268	659.2
623.681	674.6
624.095	668.8
624.509	680
624.922	673.2
625.336	661.4
625.728	666.6
626.142	676.4
626.556	690.2
626.97	672.2
627.384	663.6
627.799	674.8
628.213	684.8
628.627	667.6
629.041	664.6
629.456	673
629.87	662.8
630.285	675.8
630.699	684.6
631.093	671.2
631.507	677.8
631.922	671.4
632.337	684.6
632.752	663.4
633.167	667.8
633.582	667.8
633.997	664.4
634.412	655.6
634.806	662.6
635.221	657.6
635.637	671.6
636.052	665.8
636.468	674.6
636.883	696
637.299	662.8
637.715	656.4
638.109	668.8
638.525	653.4
638.941	686.2
639.357	675.2
639.773	677.6
640.189	660.2
640.584	667.4
641	673.8
641.416	652.6
641.832	667
642.249	661.4
642.665	662
643.06	678.8
643.477	680.6
643.894	648.4
644.31	669.2
644.727	665.2
645.123	662.2
645.54	659
645.957	676.2
646.374	684.4
646.77	671.4
647.187	697.6
647.604	669.4
648.021	647.2
648.439	663.4
648.835	669.6
649.252	676.6
649.67	668.2
650.088	670.2
650.484	670.2
650.902	674.4
651.32	679.2
651.738	670.6
652.134	672.8
652.552	694.4
652.971	677.4
653.389	670.4
653.786	679.6
654.204	686.2
654.622	662.4
655.019	669
655.438	672.8
655.857	669
656.275	673.2
656.673	658
657.091	756.4
657.51	669.8
657.908	679
658.327	685.6
658.746	659.2
659.144	669.4
659.563	682.2
659.982	670
660.38	654
660.8	666.4
661.219	673.2
661.617	666.6
662.037	665
662.457	684.2
662.855	643.8
663.275	704.8
663.695	665.8
664.094	659.4
664.514	668.4
664.934	659.8
665.333	676
665.753	650.4
666.152	658.2
666.572	657.8
666.993	679.2
667.392	662.6
667.812	661.2
668.212	672.4
668.632	679.8
669.053	660.4
669.453	664.8
669.874	659.8
670.273	668.8
670.694	662.6
671.116	675.8
671.515	675.4
671.937	663.2
672.337	658.2
672.758	666
673.158	673
673.58	655.2
673.98	672.4
674.402	673
674.824	663.8
675.224	655.8
675.646	654.8
676.047	662
676.469	666.2
676.869	672.2
677.292	672.4
677.693	657.2
678.115	669.4
678.516	668.8
678.939	672.4
679.34	670
679.762	675.4
680.164	661.2
680.586	665.4
680.988	669.6
681.411	698
681.812	662.4
682.236	649.6
682.637	649.2
683.061	661.4
683.462	666
683.864	667.2
684.288	669
684.69	656.4
685.114	668.6
685.516	672.6
685.94	651.8
686.342	665.8
686.766	664.6
687.168	666.2
687.571	680.6
687.995	667.6
688.398	648.8
688.822	661
689.225	682.2
689.628	694.4
690.052	668.2
690.456	671.4
690.88	660
691.284	655
691.687	676.8
692.112	660.2
692.515	661
692.919	674.2
693.344	664.8
693.747	660.4
694.173	651.2
694.577	680.2
694.98	663.4
695.406	659.2
695.81	664.6
696.214	669.8
696.64	670.6
697.044	666.6
697.448	678.4
697.874	666
698.279	657.4
698.684	653.4
699.11	653.4
699.514	662.4
699.919	657
700.324	654.8
700.75	661
701.156	660.2
701.561	672.6
701.987	675.6
702.393	686.8
702.798	672.6
703.203	660
703.63	653.6
704.036	658
704.442	662.8
704.847	658.2
705.274	661.8
705.68	665.2
706.086	666.8
706.492	650.4
706.92	661
707.326	671
707.732	660.6
708.139	651.4
708.545	650.8
708.973	654.6
709.38	669.2
709.786	649.6
710.193	684.2
710.6	664.2
711.028	653.6
711.435	665.6
711.842	663
712.249	664.2
712.656	661.6
713.064	677.8
713.492	650.8
713.9	658.2
714.307	661
714.715	663.2
715.123	666.8
715.53	676.2
715.938	671
716.367	667.4
716.775	659.4
717.184	649.8
717.592	664.8
718	683.2
718.408	710.4
718.816	708.4
719.225	674.6
719.633	663.4
720.042	648
720.472	652.8
720.881	688.4
721.29	670.8
721.699	657.6
722.108	671.8
722.517	667.4
722.926	666.6
723.335	677.4
723.744	655
724.154	660.6
724.563	660.6
724.973	660.8
725.382	663
725.792	661.4
726.202	651.6
726.612	687.6
727.022	658.2
727.432	659.2
779.813	668.6
780.223	712.8
780.634	663.8
781.044	654.4
781.454	655
781.865	675.6
782.276	655.4
782.686	664.4
783.097	662
783.508	662.8
783.919	669.4
784.33	673.2
784.741	676.2
785.152	656.4
785.563	649.6
785.974	656.2
786.386	672.2
786.776	659.6
787.188	661.6
787.599	657
788.011	677.8
788.423	658.4
788.835	664
789.247	656.2
789.659	657.2
790.071	659.8
790.483	700.2
790.874	659.6
791.286	683.2
791.699	659.6
792.111	660.8
792.524	669
792.937	668.4
793.349	650
793.741	649.4
794.154	658.6
794.567	685.4
794.98	655.6
795.393	646.4
795.785	686.6
796.198	656.8
796.612	658.8
797.026	651.2
797.439	638.2
797.831	657.4
798.245	651.6
798.659	657.6
799.073	657.4
799.487	646.4
799.88	659
800.294	656.8
800.708	665.6
801.123	656
801.516	680
801.93	646.8
802.345	642
802.76	660.4
803.153	677.8
803.568	669.4
803.983	670.6
804.377	667
804.792	642
805.207	646
805.601	662.4
806.016	700.8
806.432	659
806.826	692.2
807.242	681.8
807.658	669.2
808.052	656.2
808.468	650.6
808.884	664
809.279	661.2
809.695	689.6
810.111	686
810.506	670.4
810.922	686.2
811.339	654.6
811.734	676
812.151	669.6
812.546	653.2
812.963	661.2
813.38	666.6
813.776	658.8
814.193	697
814.589	643.6
815.006	653.8
815.402	652.4
815.82	660
816.237	657.8
816.633	660.2
817.051	638.8
817.448	657.2
817.866	653.8
818.262	688.6
818.68	659
819.077	657.2
819.495	651.8
819.892	708
820.311	652.4
820.708	657.6
821.127	653.6
821.524	677.8
821.943	670.8
822.34	676.6
822.759	669
823.157	668.4
823.576	679
823.974	665.6
824.393	799.4
824.791	654.6
825.189	657.8
825.609	654.4
826.007	667
826.427	650
826.826	658.2
827.246	666.4
827.644	642.8
828.043	666
828.463	658.6
828.862	664.2
829.261	666.6
829.682	649.8
830.081	671.4
830.502	666.8
830.901	667.4
831.301	654.8
831.722	639.2
832.121	657.6
832.521	660.2
832.943	665.4
833.342	662.6
833.742	650.8
834.164	653.2
834.564	654
834.965	656.4
835.386	662.6
835.787	661.4
836.188	666
836.588	669.8
837.01	655.6
837.411	654.8
837.812	666.2
838.213	664.6
838.636	656.6
839.037	731.2
839.438	660
839.84	664.6
840.263	670
840.664	657.2
841.066	659
841.468	667.4
841.891	661.6
842.293	669.6
842.695	667.2
843.098	676
843.5	657.4
843.902	668.2
844.326	669.4
844.729	664.2
845.131	661.8
845.534	661.4
845.937	672.8
846.34	677
846.764	653.8
847.167	665.4
847.571	662
847.974	661
848.377	655
848.781	718
849.184	674.6
849.588	657.4
849.992	655.2
850.396	661.4
850.821	687
851.225	672.2
851.63	658.8
852.034	669.8
852.438	651.6
852.843	700.8
853.247	653.4
853.652	641.6
854.057	672
854.462	662.6
