#lambda/nm	C1
208.295	542.8
208.67	490.2
209.045	458.8
209.419	453.4
209.794	698
210.169	668.6
210.544	810.2
210.919	690
211.295	684
211.67	686.6
212.045	690.8
212.421	687.6
212.796	729
213.172	686.4
213.547	683.4
213.923	683.8
214.299	690.6
214.675	699.4
215.051	683.2
215.427	695.4
215.803	709.6
216.179	692.2
216.555	682.8
216.932	694.2
217.308	684.8
217.684	694.2
218.061	686
218.438	684.4
218.814	682
219.191	705.2
219.568	684.8
219.945	686
220.322	703.4
220.699	701.6
221.076	694.2
221.453	694.2
221.83	687.6
222.208	680.4
222.585	685.2
222.962	686.8
223.34	690.2
223.717	690.6
224.095	685.8
224.473	695
224.851	684
225.229	671.4
225.607	705.6
225.985	679.2
226.363	680.8
226.741	692.2
227.119	687.2
227.497	702.2
227.876	665.6
228.254	700
228.633	696
229.011	685.8
229.39	701.2
229.769	699.4
230.148	702.4
230.527	716.6
230.905	705
231.284	691.6
231.664	686.2
232.043	704
232.422	698
232.801	689
233.181	697.8
233.56	682.8
233.94	687.6
234.319	671.2
234.699	688.4
235.079	740
235.458	729.2
235.838	707.4
236.218	685.2
236.598	678.4
236.978	679.6
237.358	679.4
237.738	689
238.119	693.6
238.499	685.4
238.88	696.2
239.26	704.6
239.641	678
240.021	680.6
240.402	690.8
240.783	681.4
241.163	687.8
241.544	696.2
241.925	682.2
242.306	705.6
242.687	674.6
243.069	692.8
243.45	687.8
243.831	676.2
244.212	693
244.594	736
244.975	701.4
245.357	689.2
245.739	676.8
246.12	687.6
246.502	704.4
246.884	683.6
247.266	691.6
247.648	697.8
248.03	719.4
248.412	690.6
248.794	695.8
249.176	685.2
249.559	695.8
249.941	682.6
250.323	680.6
250.706	680.4
251.089	689.8
251.471	692
251.854	701.6
252.237	687
252.62	703.8
253.002	686
253.385	692.8
253.769	702.8
254.152	692.4
254.535	697.2
254.918	686.6
255.301	687.8
255.685	690.2
256.068	681
256.452	717
256.835	701.8
257.219	696.6
257.603	713.4
257.986	692.6
258.37	705.8
258.754	683.6
259.138	703.8
259.522	708.8
259.906	693
260.29	694.6
260.675	688.4
261.059	698.4
261.443	679.4
261.828	701
262.212	696.8
262.597	680
262.981	682
263.366	696.4
263.751	691.4
264.136	689.2
264.521	685.2
264.906	678.6
265.291	711.8
265.676	684.4
266.061	697
266.446	717.6
266.831	693.4
267.217	714.6
267.602	698.4
267.987	697.4
268.373	679
268.759	706.8
269.144	692
269.53	680.8
269.916	695.4
270.302	683.2
270.688	701.2
271.074	697.4
271.46	706.8
271.846	723.4
272.232	696.6
272.618	685.2
273.004	685
273.391	703.2
273.777	722
274.164	698.4
274.55	707.6
274.937	699.2
275.324	696.6
275.71	710.2
276.097	704
276.484	677.2
276.871	698.2
277.258	696.6
277.645	681.8
278.032	696.8
278.419	693.4
278.807	688.2
279.194	674.8
279.581	685.2
279.969	696.8
280.356	693.6
280.744	688.8
281.131	722.8
281.519	703.6
281.907	688
282.295	683.6
282.682	696.4
283.07	691.8
283.458	700
283.846	704.2
284.235	700.2
284.623	703.2
285.011	681.6
285.399	687.2
285.788	691.2
286.176	681.8
286.565	695.6
286.953	687.8
287.342	684.8
287.731	685.8
288.119	681.8
288.508	690.4
288.897	698.6
289.286	687.6
289.675	702
290.064	704.8
290.453	683.8
290.821	681.8
291.21	714.4
291.599	685.8
291.989	695.2
292.378	701.6
292.768	711
293.157	693.2
293.547	702.6
293.936	685
294.326	679
294.716	697.6
295.106	693
295.496	707.6
295.886	700.6
296.276	692.2
296.666	686.2
297.056	685.4
297.446	678.2
297.836	711
298.227	696.2
298.617	692.8
299.008	714.2
299.398	685.8
299.789	682.6
300.179	701.2
300.57	710.2
300.961	688.6
301.352	693.8
301.742	703.8
302.133	694.4
302.524	690
302.915	701.6
303.307	683.4
303.698	703.6
304.089	695.6
304.48	697.8
304.872	707.8
305.263	702
305.655	697.4
306.046	706.2
306.438	691.6
306.829	687.4
307.221	705
307.613	705.2
308.005	709.2
308.397	702
308.789	716.2
309.181	722.6
309.573	717.6
309.965	700.8
310.357	695
310.749	710
311.142	695
311.534	695.6
311.926	700
312.319	691.6
312.711	675.4
313.104	711.2
313.497	691.2
313.889	736.6
314.282	710.8
314.675	725
315.068	703.2
315.461	710.2
315.854	725.6
316.247	703.2
316.64	699
317.033	699
317.405	707
317.798	698
318.192	703.8
318.585	693
318.979	707.2
319.372	679.8
319.766	689.8
320.16	714.2
320.553	709
320.947	716.6
321.341	696.8
321.735	694.4
322.129	676.2
322.523	725.6
322.917	680.6
323.311	706
323.705	701.8
324.099	702.8
324.494	712.6
324.888	703
325.282	692.8
325.677	708
326.071	709.4
326.466	710.2
326.861	697.6
327.255	706.2
327.65	717.6
328.045	717.8
328.44	694.8
328.835	701
329.23	686
329.625	717.2
330.02	695
330.415	718.2
330.81	697.6
331.206	699.6
331.601	689.2
331.996	703.6
332.37	727.6
332.766	680.6
333.161	720.6
333.557	691.8
333.953	693
334.348	1085
334.744	698.8
335.14	686.2
335.536	693.2
335.932	710.8
336.328	698
336.724	704.6
337.12	700.4
337.516	697.4
337.913	695.4
338.309	710.2
338.705	694.6
339.102	701.8
339.498	691.4
339.895	704.6
340.291	692.4
340.688	714.2
341.085	685.4
341.481	696.4
341.878	695.2
342.275	719.2
342.672	688.6
343.069	688.4
343.466	681.6
343.842	700.8
344.239	682.8
344.636	689
345.033	682.2
345.431	676.2
345.828	692.4
346.225	683.6
346.623	730.8
347.02	686.2
347.418	693.8
347.816	701.6
348.213	677.2
348.611	700.4
349.009	680.4
349.407	707.8
349.805	675.4
350.203	670.8
350.601	702.4
350.999	681.4
351.397	744.8
351.795	693.8
352.193	698
352.57	703.4
352.969	705.8
353.367	679.6
353.766	675.4
354.164	681.6
354.563	699.6
354.961	686.4
355.36	688.8
355.759	689.8
356.158	677.8
356.557	686.2
356.956	677.4
357.355	675.8
357.754	704.6
358.153	693.6
358.552	717
358.951	694
359.35	704.8
359.75	693.2
360.149	672.6
360.527	682
360.926	677.4
361.326	689.8
361.726	681.4
362.125	687.6
362.525	704.2
362.925	685.8
363.325	695.4
363.724	686.6
364.124	678.8
364.524	682.8
364.924	684
365.324	702.8
365.725	678.8
366.125	698.2
366.525	691.2
366.904	672.2
367.304	665.6
367.705	700
368.105	698
368.506	684.4
368.906	684.4
369.307	683.2
369.708	691.4
370.108	679.2
370.509	696.2
370.91	686.6
371.311	693
371.712	685.6
372.113	682.4
372.514	674.4
372.894	681.4
373.295	671.4
373.696	692.8
374.097	693.6
374.499	723
374.9	682
375.301	684.8
375.703	695.8
376.105	671.4
376.506	685.6
376.908	697.8
377.309	697.4
377.711	689.8
378.113	690.8
378.493	679.2
378.895	681.4
379.297	699.8
379.699	676.2
380.102	701.4
380.504	689.4
380.906	682.4
381.308	710.4
381.71	690.2
382.113	694.4
382.515	683.2
382.918	694.6
383.299	682.8
383.701	692
384.104	695.2
384.507	658
384.909	685.8
385.312	667.6
385.715	678.6
386.118	676.4
386.521	674.8
386.924	699
387.327	670.4
387.709	665.4
388.112	664
388.515	678.4
388.918	681.2
389.322	682
389.725	680.6
390.129	712.2
390.532	698.4
390.936	688.6
391.339	666.6
391.743	686.4
392.125	667.2
392.529	688.8
392.933	694.4
393.337	675.8
393.74	685.8
394.144	680
394.548	683.8
394.953	680.2
395.357	690.2
395.761	684.6
396.144	688.2
396.548	688.8
396.952	682
397.357	679.6
397.761	676.6
398.166	678.8
398.57	682.8
398.975	673.2
399.379	683.2
399.763	744.6
400.168	681.6
400.572	682
400.977	680.8
401.382	700.4
401.787	695.8
402.192	706
402.597	707.6
403.002	672.8
403.386	707
403.791	702.6
404.197	674.4
404.602	686
405.007	682.2
405.413	679.4
405.818	676.8
406.224	687.8
406.608	692.2
407.014	677
407.42	695
407.825	685
408.231	694.8
408.637	689.6
409.043	702.8
409.449	681.8
409.834	679.8
410.24	683
410.646	702.8
411.052	691.4
411.458	690.6
411.865	699.2
412.271	700.6
412.677	687.8
413.062	685.4
413.469	672.8
413.875	722.2
414.282	705.2
414.689	689
415.095	681.4
415.502	669.2
415.888	682.2
416.294	665.6
416.701	732.6
417.108	679.8
417.515	689.2
417.923	677.6
418.33	709
418.715	695.8
419.123	680.6
419.53	689.8
419.937	687.8
420.345	706.2
420.752	683.4
421.16	704.4
421.546	677.6
421.953	702
422.361	679
422.769	680.4
423.177	675.2
423.585	713.6
423.992	710.8
424.379	699.2
424.787	693.6
425.195	706.8
425.603	687.8
426.011	707.6
426.419	705.8
426.806	691.6
427.214	698.2
427.623	699.8
428.031	713.8
428.44	687.6
428.848	712.4
429.235	712
429.644	694.8
430.053	688
430.461	703
430.87	727.4
431.279	700.6
431.666	682.4
432.075	693.2
432.484	705.2
432.893	692
433.302	714.6
433.711	745.4
434.099	691.4
434.508	683.6
434.918	670.2
435.327	693.8
435.737	696.6
436.125	690.2
436.534	695
436.944	690.2
437.353	689.8
437.763	717.6
438.173	686
438.561	694
438.971	684.6
439.381	692.4
439.791	695
440.201	674.6
440.589	682.8
440.999	693
441.409	696.2
441.819	672
442.23	695
442.619	689.4
443.029	683.2
443.439	694.2
443.85	703.2
444.26	709.2
444.649	695.6
445.06	683.8
445.471	674.6
445.881	684.8
446.292	708.4
446.682	720.4
447.092	672.6
447.503	748.8
447.914	693
448.325	687.6
448.715	687.8
449.126	676.2
449.537	684.4
449.948	681.4
450.338	683.2
450.75	691.4
451.161	677.4
451.572	686.6
451.984	673.4
452.374	662.2
452.786	686.2
453.197	683.6
453.609	691.4
453.999	669.6
454.411	677.8
454.823	692.6
455.235	682.4
455.647	678.4
456.037	688
456.449	663.8
456.862	682.8
457.274	683
457.665	677.2
458.077	689
458.489	727.6
458.902	688.6
459.293	683
459.705	694.6
460.118	676
460.53	685.6
460.921	691.4
461.334	685.8
461.747	692.8
462.16	695.8
462.551	705.2
462.964	693.2
463.377	667.6
463.79	681.8
464.182	696.8
464.595	677.6
465.008	694.4
465.421	694.4
465.813	684.2
466.226	696.6
466.64	674.2
467.053	743.8
467.445	693.2
467.859	705
468.272	694.8
468.686	704.8
469.078	685.6
469.492	672
469.906	678.8
470.298	695.6
470.712	682.2
471.126	753.8
471.54	671.2
471.933	680.2
472.347	680.8
472.761	684.4
473.175	676.4
473.568	678.6
473.982	670.8
474.397	681.6
474.79	684.2
475.204	697
475.619	678.4
476.033	692.6
476.426	679.6
476.841	680.4
477.256	714.2
477.649	676
478.064	671.2
478.479	677.6
478.872	673
479.287	672
479.702	678.4
480.118	691.2
480.511	685.8
480.927	686.6
481.342	666.2
481.736	683
482.151	678.6
482.566	694.2
482.96	686.6
483.376	691.6
483.792	672.8
484.186	684
484.602	676.2
485.017	677.8
485.412	678.4
485.827	681.2
486.243	679.6
486.638	702.8
487.054	695.4
487.47	710.8
487.865	677.6
488.281	675
488.697	671.8
489.092	678.2
489.508	675.8
489.925	687.4
490.32	667.6
490.736	691.4
491.153	688.8
491.548	675.8
491.964	694.4
492.381	665.6
492.776	689
493.193	688.8
493.61	676.6
494.006	685
494.422	681.8
494.84	671.2
495.235	689.2
495.652	681.6
496.069	676
496.465	672.8
496.883	690.6
497.3	701.8
497.696	676.8
498.113	683
498.509	669.2
498.927	670.6
499.344	678.2
499.741	672.6
500.158	683.2
500.576	689.8
500.973	678.8
501.39	667.2
501.787	668.4
502.205	684.2
502.623	670.2
503.02	662.8
503.438	670.4
503.856	678.6
504.253	667.6
504.671	676.8
505.068	674.8
505.486	675
505.905	688.8
506.302	681.4
506.72	692.4
507.118	667.8
507.536	692
507.955	675.4
508.352	677.8
508.771	687.8
509.169	689.6
509.587	668.2
510.006	682.6
510.404	666.6
510.823	682.8
511.221	672.6
511.64	681.2
512.038	695
512.457	677.8
512.877	670.6
513.275	671.8
513.694	677.4
514.092	671.2
514.512	682.8
514.91	668.2
515.33	674.8
515.749	676.4
516.148	676.4
516.568	680.8
516.966	671.8
517.386	671.8
517.785	678.2
518.205	672.8
518.603	663.8
519.024	664.4
519.444	689.4
519.843	679.8
520.263	687.2
520.662	683.2
521.082	660
521.481	683.6
521.902	680.4
522.301	683.4
522.722	676.2
523.121	673
523.542	676.6
523.963	682
524.362	684.4
524.783	669
525.183	673.8
525.604	693.2
526.003	671.8
526.425	676.8
526.824	679.6
527.246	684.4
527.646	685.6
528.067	683.2
528.467	683
528.888	685.2
529.289	681.4
529.71	680
530.11	670.8
530.532	678.8
530.932	666.2
531.354	665.4
531.755	717.2
532.176	688.6
532.577	678
532.999	683.4
533.4	675.6
533.822	690.4
534.223	678.4
534.645	677.4
535.046	671
535.468	682
535.869	691.8
536.292	675.4
536.693	722.2
537.115	681.8
537.516	666.4
537.939	672.6
538.34	692.6
538.742	682.6
539.165	681.6
539.566	684
539.989	668.4
540.391	674.6
540.814	673.4
541.216	671.6
541.639	679
542.041	684.4
542.464	676.2
542.866	668.4
543.268	667.8
543.691	679.2
544.093	678.2
544.517	705.4
544.919	657.2
545.343	692.6
545.745	665
546.147	678.4
546.571	670
546.974	664.6
547.398	677.8
547.8	686.6
548.224	666.2
548.627	666.6
549.03	681.6
549.454	668
549.857	657.4
550.281	674
550.684	671
551.087	682.4
551.512	674
551.915	688.2
552.34	676.8
552.743	662
553.146	675.2
553.571	673.4
553.975	693.8
554.399	664.2
554.803	732.6
555.207	667.4
555.632	656
556.036	676.2
556.461	663.8
556.865	669.8
557.268	670.6
557.694	661.4
558.098	683.8
558.502	674.8
558.927	661.4
559.332	677.8
559.736	668.8
560.162	682.8
560.566	667.4
560.992	675.4
561.396	669.6
561.801	665.4
562.227	668.4
562.631	666
563.036	676
563.462	674.2
563.867	685.6
564.272	661.4
564.698	673.8
565.103	663.2
565.508	693.6
565.935	671.2
566.34	672.2
566.745	679.4
567.172	666.6
567.577	694.2
567.982	692
568.409	685
568.815	664.6
569.22	676.4
569.626	682.6
570.053	660
570.459	678.2
570.865	683.4
571.292	681.4
571.698	678.4
572.104	654.4
572.531	672
572.937	685.2
573.343	672.2
573.75	679.6
574.177	685.4
574.583	687.6
574.99	668
575.396	676.2
575.824	669
576.231	675.4
576.637	670
577.065	707
577.472	669
577.879	677.8
578.286	687.4
578.714	665
579.121	674.6
579.528	675.4
579.935	680.4
580.364	679.4
580.771	661
581.178	667.2
581.585	675.8
582.014	677.2
582.421	670.4
582.829	671.6
583.236	686.4
583.644	663.4
584.073	660.4
584.481	674.6
584.889	659.2
585.296	675.2
585.726	671.8
586.134	669.6
586.542	678
586.95	692
587.358	656.4
587.787	665.6
588.196	658.6
588.604	670.8
589.012	668
589.421	666.6
589.851	660.4
590.259	678.6
590.668	672
591.076	707.4
591.485	666.4
591.894	670
592.324	689
592.733	684.4
593.142	653.4
593.551	666.4
593.96	718.4
594.369	654.4
594.8	667.6
595.209	673.4
595.618	652.8
596.028	664.8
596.437	660
596.847	670.6
597.256	673.2
597.687	682.2
598.097	670.6
598.507	662.6
598.917	669.6
599.327	683.6
599.736	674.2
600.146	682
600.556	675.8
600.988	691
601.398	676.6
601.808	684.6
602.219	656.2
602.629	672.2
603.039	683.8
603.45	708
603.86	667.2
604.271	682.4
604.703	672.2
605.114	670.2
605.525	669.6
605.935	682.2
606.346	687.6
606.757	679.8
607.168	670.2
607.579	662.4
607.99	676.6
608.402	665
608.813	680.2
609.224	663
609.636	656.4
610.047	667
610.48	675
610.892	677.6
611.303	679.4
611.715	668
612.127	670.8
612.539	674.2
612.95	670
613.362	657.6
613.774	666
614.186	665.2
614.599	671.6
615.011	685.4
615.423	681
615.835	668.2
616.248	657.8
616.66	679.4
617.073	658.4
617.485	670
617.898	683.8
618.311	671.6
618.723	666.6
619.136	697.2
619.549	679.4
619.962	696.6
620.375	670.8
620.788	680.2
621.201	661.2
621.614	683.2
622.028	665.2
622.441	679.8
622.854	694
623.268	657.6
623.681	671.2
624.095	673.8
624.509	676
624.922	680
625.336	661.2
625.728	665
626.142	672
626.556	696
626.97	678.6
627.384	661
627.799	669.8
628.213	674
628.627	664.2
629.041	663.2
629.456	674
629.87	667.2
630.285	689.2
630.699	675.6
631.093	669
631.507	679.4
631.922	680.6
632.337	684.6
632.752	661.4
633.167	667.6
633.582	664.4
633.997	669
634.412	656.8
634.806	669.4
635.221	663.4
635.637	680
636.052	656
636.468	671.6
636.883	685
637.299	666.4
637.715	648.2
638.109	670.6
638.525	657.8
638.941	682.2
639.357	674.8
639.773	674
640.189	666
640.584	671.4
641	670.4
641.416	657
641.832	672.8
642.249	662.4
642.665	664.4
643.06	671.4
643.477	672.8
643.894	646.4
644.31	667.2
644.727	671.2
645.123	664.4
645.54	668.2
645.957	673
646.374	690.4
646.77	666.4
647.187	690
647.604	671.2
648.021	655.4
648.439	660.8
648.835	676.2
649.252	670.4
649.67	666.8
650.088	673.2
650.484	673.8
650.902	683.4
651.32	674.6
651.738	657.4
652.134	670
652.552	690.2
652.971	675.8
653.389	671.8
653.786	688.4
654.204	682.2
654.622	653.8
655.019	667.6
655.438	666.8
655.857	668.4
656.275	680
656.673	658
657.091	748.4
657.51	655.6
657.908	678.6
658.327	692.2
658.746	655.2
659.144	647.2
659.563	685
659.982	671.8
660.38	655.4
660.8	663.6
661.219	676.8
661.617	684.2
662.037	657.6
662.457	680.6
662.855	648.4
663.275	702.8
663.695	668.2
664.094	658.4
664.514	670.2
664.934	658.6
665.333	670.4
665.753	656.4
666.152	652.8
666.572	658.2
666.993	677.6
667.392	666
667.812	659.4
668.212	669.2
668.632	679.4
669.053	665.2
669.453	676.2
669.874	676.2
670.273	678.4
670.694	662.6
671.116	680.2
671.515	669.2
671.937	664.4
672.337	659
672.758	665.2
673.158	671
673.58	658.6
673.98	669.2
674.402	671.4
674.824	657.2
675.224	659.8
675.646	656.2
676.047	657.4
676.469	676.6
676.869	674.8
677.292	669.4
677.693	651.6
678.115	659
678.516	665.4
678.939	671.4
679.34	668.8
679.762	679
680.164	665.8
680.586	662.2
680.988	675.4
681.411	696
681.812	670.4
682.236	655.6
682.637	665
683.061	653.8
683.462	670
683.864	664.4
684.288	673.8
684.69	657.8
685.114	676.4
685.516	680
685.94	658.6
686.342	671.6
686.766	660.4
687.168	662.8
687.571	689
687.995	663.4
688.398	646.2
688.822	667.8
689.225	680
689.628	696.2
690.052	670.4
690.456	679.6
690.88	658.8
691.284	653.2
691.687	668.4
692.112	659
692.515	658.8
692.919	670.6
693.344	666.6
693.747	660.4
694.173	651.4
694.577	670.6
694.98	673.4
695.406	663.6
695.81	662.6
696.214	665
696.64	675.6
697.044	670
697.448	676.4
697.874	663.8
698.279	660
698.684	650.8
699.11	660.4
699.514	661.6
699.919	657.2
700.324	653.6
700.75	671.8
701.156	662.6
701.561	671.6
701.987	678.2
702.393	675.4
702.798	671.8
703.203	655.4
703.63	654.4
704.036	663.2
704.442	669.8
704.847	657.6
705.274	663
705.68	670.6
706.086	677.4
706.492	662.6
706.92	663.2
707.326	675.8
707.732	658.2
708.139	655.2
708.545	652.8
708.973	656
709.38	659.2
709.786	648.6
710.193	678.4
710.6	662
711.028	663.4
711.435	662
711.842	657.2
712.249	652.4
712.656	668.2
713.064	669.4
713.492	656.6
713.9	653.4
714.307	663.8
714.715	660
715.123	666.8
715.53	660.4
715.938	663.6
716.367	666
716.775	663.6
717.184	660
717.592	663.6
718	683.6
718.408	704.8
718.816	715
719.225	674.2
719.633	665.4
720.042	651.6
720.472	665.4
720.881	687.8
721.29	670.4
721.699	647.6
722.108	673.8
722.517	666.8
722.926	658.8
723.335	679.4
723.744	658.8
724.154	660.6
724.563	660.4
724.973	666.4
725.382	661.2
725.792	661.8
726.202	654.8
726.612	689.2
727.022	666.4
727.432	656.4
779.813	663.4
780.223	722.4
780.634	664
781.044	654.2
781.454	649
781.865	670.2
782.276	654.4
782.686	675.2
783.097	666.8
783.508	655.2
783.919	664.6
784.33	673.2
784.741	673.8
785.152	660
785.563	645.4
785.974	661.8
786.386	673.2
786.776	664.2
787.188	668.4
787.599	650.4
788.011	664.2
788.423	673.4
788.835	656
789.247	652.8
789.659	661.4
790.071	654.6
790.483	716.2
790.874	655.6
791.286	678
791.699	659
792.111	662
792.524	662.6
792.937	664.8
793.349	650.4
793.741	652.6
794.154	660.4
794.567	689.6
794.98	663.8
795.393	649.6
795.785	675.8
796.198	653.2
796.612	668.6
797.026	663.4
797.439	643.4
797.831	659.2
798.245	647.6
798.659	659.4
799.073	655.2
799.487	657
799.88	657.8
800.294	655.8
800.708	662.6
801.123	657.6
801.516	680
801.93	648.6
802.345	652.2
802.76	651.4
803.153	682.8
803.568	671.2
803.983	668.4
804.377	661.8
804.792	652
805.207	644.2
805.601	655.2
806.016	692.6
806.432	659.6
806.826	704.6
807.242	683
807.658	664.2
808.052	657
808.468	654.2
808.884	653.6
809.279	657.8
809.695	678.2
810.111	683.6
810.506	663.6
810.922	686
811.339	661.4
811.734	672.4
812.151	659.6
812.546	660.2
812.963	662.4
813.38	669
813.776	658
814.193	688.4
814.589	653.8
815.006	656.8
815.402	652.4
815.82	652.4
816.237	657.2
816.633	661.4
817.051	642.8
817.448	662.6
817.866	648
818.262	687
818.68	651
819.077	657.6
819.495	654.8
819.892	709.2
820.311	653.6
820.708	656.2
821.127	658.4
821.524	663.6
821.943	659.2
822.34	677.4
822.759	660.2
823.157	658.8
823.576	675.8
823.974	668.8
824.393	733.6
824.791	659
825.189	654.6
825.609	660.8
826.007	665.4
826.427	650.6
826.826	659.8
827.246	659.6
827.644	652.8
828.043	669
828.463	654.4
828.862	677.4
829.261	663.4
829.682	653.6
830.081	664.4
830.502	656.4
830.901	668
831.301	660.4
831.722	649.6
832.121	656.4
832.521	654
832.943	659.4
833.342	663.8
833.742	648.4
834.164	659.2
834.564	650.6
834.965	662.8
835.386	655
835.787	661.2
836.188	651.6
836.588	662.2
837.01	654.4
837.411	651
837.812	673.4
838.213	665
838.636	666.2
839.037	735.6
839.438	663.6
839.84	665.2
840.263	660.8
840.664	663
841.066	659.2
841.468	679.4
841.891	656.2
842.293	666.2
842.695	659
843.098	668
843.5	661
843.902	665
844.326	663
844.729	650.4
845.131	676.8
845.534	656.2
845.937	673.8
846.34	683.4
846.764	648.8
847.167	659.4
847.571	660.6
847.974	656.2
848.377	660.4
848.781	720.8
849.184	666.6
849.588	649
849.992	656
850.396	673.4
850.821	684.4
851.225	657.4
851.63	658.6
852.034	676.6
852.438	662
852.843	709.8
853.247	658.8
853.652	649.8
854.057	678.2
854.462	662
