#lambda/nm	C1
208.295	545.2
208.67	498.4
209.045	457.2
209.419	454.8
209.794	689.4
210.169	676.8
210.544	820
210.919	699.8
211.295	676.6
211.67	689.6
212.045	695.8
212.421	688.4
212.796	728.2
213.172	688.8
213.547	682.6
213.923	684.4
214.299	690.6
214.675	699.6
215.051	695.8
215.427	700
215.803	705.4
216.179	701.4
216.555	687.2
216.932	692.4
217.308	693.2
217.684	690
218.061	696.4
218.438	700.8
218.814	685.4
219.191	697.4
219.568	689.2
219.945	683.6
220.322	695.6
220.699	695.8
221.076	693.4
221.453	688.4
221.83	686.6
222.208	687.6
222.585	690.6
222.962	695.2
223.34	698.6
223.717	691.6
224.095	682.4
224.473	695
224.851	682
225.229	679.8
225.607	706
225.985	680.4
226.363	689.8
226.741	697.8
227.119	692.6
227.497	707
227.876	676
228.254	702.8
228.633	699.8
229.011	689.8
229.39	694.8
229.769	690
230.148	696.8
230.527	705.8
230.905	698.4
231.284	691
231.664	685.8
232.043	710.6
232.422	697.4
232.801	680.4
233.181	692.4
233.56	683
233.94	693.2
234.319	676.6
234.699	687.2
235.079	737.6
235.458	731.6
235.838	716.6
236.218	680.6
236.598	674.4
236.978	681
237.358	691.2
237.738	690
238.119	703.2
238.499	683.8
238.88	698.8
239.26	712.6
239.641	678.2
240.021	685.2
240.402	694.4
240.783	678.4
241.163	689
241.544	688.2
241.925	693.4
242.306	710.8
242.687	680.6
243.069	690
243.45	699.8
243.831	679.6
244.212	687.6
244.594	731.2
244.975	694.2
245.357	691.8
245.739	687.4
246.12	687.4
246.502	710.2
246.884	691
247.266	684.4
247.648	691
248.03	720.6
248.412	692.4
248.794	696.8
249.176	687
249.559	704.2
249.941	675.2
250.323	678
250.706	679.8
251.089	685
251.471	694.8
251.854	689.2
252.237	689
252.62	697
253.002	693.4
253.385	688.2
253.769	705
254.152	679
254.535	695.2
254.918	684
255.301	678.2
255.685	681.8
256.068	675.6
256.452	722
256.835	699.6
257.219	693
257.603	701
257.986	675.4
258.37	700.4
258.754	671.2
259.138	699.8
259.522	708.8
259.906	692
260.29	695.4
260.675	690.8
261.059	700.6
261.443	688
261.828	691.6
262.212	707.6
262.597	681
262.981	688
263.366	695.4
263.751	689.2
264.136	686.8
264.521	692.8
264.906	685.6
265.291	698
265.676	682.6
266.061	701.6
266.446	711
266.831	688.2
267.217	711.8
267.602	690.8
267.987	694
268.373	685.4
268.759	702
269.144	694.4
269.53	695
269.916	688.8
270.302	684.6
270.688	695.6
271.074	696.2
271.46	714.2
271.846	726.8
272.232	696.2
272.618	694.4
273.004	687
273.391	697.6
273.777	702.8
274.164	699
274.55	712.4
274.937	697.2
275.324	688.4
275.71	695.6
276.097	701.2
276.484	683
276.871	690.8
277.258	693.2
277.645	679.6
278.032	687.2
278.419	695
278.807	699.6
279.194	686.2
279.581	684.6
279.969	694.4
280.356	695
280.744	692.8
281.131	716.4
281.519	710.8
281.907	684.8
282.295	694.4
282.682	699.2
283.07	689.4
283.458	705.4
283.846	698.2
284.235	710
284.623	708.2
285.011	680.2
285.399	691.8
285.788	691.4
286.176	674.6
286.565	701.2
286.953	698
287.342	696
287.731	685.4
288.119	683.2
288.508	691.4
288.897	702.2
289.286	677.4
289.675	696.2
290.064	699.4
290.453	687.2
290.821	699
291.21	716.2
291.599	696.8
291.989	689
292.378	703.2
292.768	709.4
293.157	704.2
293.547	700.6
293.936	686.8
294.326	685.2
294.716	695.2
295.106	688.2
295.496	707.6
295.886	707
296.276	694.4
296.666	683.6
297.056	690.4
297.446	674.4
297.836	712
298.227	698.8
298.617	699
299.008	708.4
299.398	690
299.789	689
300.179	699.6
300.57	709.4
300.961	691.8
301.352	691.4
301.742	703.4
302.133	691.2
302.524	691.6
302.915	692.2
303.307	683
303.698	704
304.089	698.8
304.48	698.2
304.872	693
305.263	690.6
305.655	690.8
306.046	694.2
306.438	702.8
306.829	680.8
307.221	716.2
307.613	696.8
308.005	711.4
308.397	719
308.789	719.4
309.181	727.2
309.573	716.4
309.965	706.6
310.357	688.8
310.749	703.6
311.142	684.8
311.534	686
311.926	699.2
312.319	700.4
312.711	687.2
313.104	714.4
313.497	690.6
313.889	736
314.282	723.6
314.675	730.8
315.068	700.6
315.461	706.8
315.854	739.2
316.247	699.4
316.64	699.4
317.033	707.2
317.405	702.2
317.798	693
318.192	694.2
318.585	685.2
318.979	699.6
319.372	688.8
319.766	698
320.16	706.2
320.553	720.2
320.947	714.2
321.341	698.2
321.735	695.2
322.129	689
322.523	723.8
322.917	684.8
323.311	702.4
323.705	702.4
324.099	700.4
324.494	707.4
324.888	709.6
325.282	688.6
325.677	715.6
326.071	709.4
326.466	703
326.861	701.6
327.255	709.8
327.65	715.6
328.045	720.2
328.44	699.6
328.835	699.8
329.23	699.8
329.625	722.8
330.02	690.2
330.415	716.2
330.81	697.8
331.206	703.4
331.601	698.8
331.996	695.8
332.37	713.8
332.766	681.4
333.161	718
333.557	688
333.953	693.8
334.348	1037.4
334.744	698.4
335.14	686.6
335.536	688.8
335.932	705.4
336.328	696.8
336.724	707.8
337.12	700.8
337.516	698.6
337.913	693
338.309	707
338.705	699
339.102	703.8
339.498	701.2
339.895	713.6
340.291	684.2
340.688	710.8
341.085	690.8
341.481	698.8
341.878	696.8
342.275	724.2
342.672	687.8
343.069	681.4
343.466	685.2
343.842	707
344.239	676.2
344.636	696.4
345.033	688.8
345.431	686
345.828	700.8
346.225	693.8
346.623	729.2
347.02	696.6
347.418	699.4
347.816	710.4
348.213	677
348.611	695
349.009	682.6
349.407	706.8
349.805	680.2
350.203	683
350.601	706.2
350.999	690.6
351.397	745
351.795	699.4
352.193	698.2
352.57	701.6
352.969	706.8
353.367	679.6
353.766	689.2
354.164	690.4
354.563	709
354.961	686.2
355.36	678.4
355.759	679.8
356.158	674.2
356.557	672.2
356.956	680.6
357.355	674.6
357.754	698.4
358.153	682.8
358.552	715.8
358.951	689.6
359.35	698.6
359.75	685.6
360.149	671.6
360.527	675.6
360.926	675.4
361.326	693
361.726	690.2
362.125	673.8
362.525	694.6
362.925	673
363.325	689.4
363.724	681
364.124	688.2
364.524	680.4
364.924	680
365.324	706.2
365.725	670.2
366.125	692
366.525	688.8
366.904	673.8
367.304	670.8
367.705	705.2
368.105	705.8
368.506	675
368.906	691.6
369.307	687.2
369.708	699
370.108	671.2
370.509	702.6
370.91	685.2
371.311	699.4
371.712	697
372.113	686.8
372.514	678.2
372.894	686.2
373.295	678
373.696	696.8
374.097	697.2
374.499	720
374.9	686.8
375.301	676.6
375.703	689.4
376.105	677.6
376.506	688.2
376.908	693.4
377.309	696
377.711	691.6
378.113	679.8
378.493	688.2
378.895	681.6
379.297	694.8
379.699	675.4
380.102	692.6
380.504	690.6
380.906	669
381.308	718
381.71	677.2
382.113	695.8
382.515	689.8
382.918	687.4
383.299	671.6
383.701	693.6
384.104	687.6
384.507	669.4
384.909	682
385.312	665.6
385.715	683
386.118	682.4
386.521	663.2
386.924	693.2
387.327	674.2
387.709	672.4
388.112	668.6
388.515	682.6
388.918	684.4
389.322	689.2
389.725	684
390.129	695.2
390.532	687.4
390.936	683.4
391.339	671.4
391.743	689.6
392.125	672.2
392.529	702.4
392.933	700
393.337	695.6
393.74	686
394.144	690.4
394.548	680.6
394.953	680.2
395.357	690.4
395.761	680.2
396.144	688
396.548	682.8
396.952	683.6
397.357	681.6
397.761	684
398.166	677.6
398.57	698.4
398.975	674
399.379	686.8
399.763	746
400.168	684.8
400.572	685.2
400.977	686
401.382	701.8
401.787	696.2
402.192	704
402.597	708.4
403.002	672
403.386	700.6
403.791	714.4
404.197	675
404.602	695.8
405.007	688.4
405.413	681.4
405.818	683
406.224	672.6
406.608	685.4
407.014	680.2
407.42	701
407.825	685.8
408.231	705.4
408.637	695.8
409.043	692.2
409.449	670.6
409.834	684.6
410.24	692.6
410.646	702.8
411.052	700.4
411.458	699.6
411.865	699.2
412.271	702.6
412.677	692.6
413.062	694.4
413.469	672.6
413.875	717.2
414.282	701.4
414.689	690
415.095	696.8
415.502	680.2
415.888	687.4
416.294	676.2
416.701	738
417.108	681.8
417.515	693.8
417.923	679.6
418.33	713
418.715	699.6
419.123	682.8
419.53	689.4
419.937	689.2
420.345	707.2
420.752	689.6
421.16	704.4
421.546	694.2
421.953	701.4
422.361	684.6
422.769	692.4
423.177	676.6
423.585	712.4
423.992	712.8
424.379	704.4
424.787	702.6
425.195	723.6
425.603	694
426.011	710.8
426.419	693.4
426.806	696
427.214	699.8
427.623	703.8
428.031	710.8
428.44	692.6
428.848	708
429.235	708.2
429.644	695
430.053	695.6
430.461	705.8
430.87	728.2
431.279	703.8
431.666	683.2
432.075	695.6
432.484	704.2
432.893	694.2
433.302	714
433.711	739.8
434.099	682.6
434.508	683.4
434.918	683.2
435.327	688.6
435.737	696.2
436.125	686.4
436.534	700.2
436.944	687.2
437.353	689
437.763	701.8
438.173	681.8
438.561	694.6
438.971	673.4
439.381	689.2
439.791	691.2
440.201	675
440.589	688.8
440.999	704.4
441.409	691
441.819	672.6
442.23	696.6
442.619	703.2
443.029	692
443.439	690
443.85	705.6
444.26	705.4
444.649	690.2
445.06	693.6
445.471	686.8
445.881	687.2
446.292	715.6
446.682	720
447.092	677.4
447.503	758.2
447.914	689.2
448.325	691.4
448.715	686.8
449.126	680
449.537	684.4
449.948	692.4
450.338	692
450.75	692.2
451.161	695
451.572	701
451.984	676.6
452.374	660.2
452.786	691.4
453.197	690.2
453.609	706.8
453.999	675.6
454.411	672
454.823	691.2
455.235	691
455.647	688.8
456.037	693.4
456.449	670.4
456.862	688.8
457.274	696.6
457.665	682.8
458.077	695.6
458.489	728
458.902	690
459.293	687
459.705	692.8
460.118	681
460.53	689.4
460.921	684.4
461.334	690.8
461.747	687.4
462.16	700.4
462.551	706.4
462.964	696.4
463.377	667.8
463.79	687.2
464.182	691.2
464.595	675.8
465.008	688.4
465.421	695.6
465.813	677
466.226	694.8
466.64	685
467.053	742.6
467.445	687.8
467.859	705
468.272	690.6
468.686	698
469.078	678.4
469.492	671
469.906	689.4
470.298	696.2
470.712	679.2
471.126	742.4
471.54	680.6
471.933	687.4
472.347	680
472.761	684.4
473.175	673.2
473.568	682.4
473.982	675.8
474.397	686.6
474.79	687.2
475.204	691
475.619	678.2
476.033	685.2
476.426	684.4
476.841	678
477.256	715
477.649	677.2
478.064	681
478.479	674.8
478.872	681.6
479.287	668.6
479.702	678.6
480.118	685.6
480.511	688.6
480.927	685.8
481.342	678.6
481.736	692
482.151	681.2
482.566	691.8
482.96	689.8
483.376	702.2
483.792	678.8
484.186	686.6
484.602	676.6
485.017	686.4
485.412	677.8
485.827	690.2
486.243	683.4
486.638	715
487.054	685
487.47	694.8
487.865	675
488.281	672
488.697	674.6
489.092	677.8
489.508	666.8
489.925	693.8
490.32	660
490.736	681
491.153	683.8
491.548	679.6
491.964	692.8
492.381	663
492.776	683
493.193	684
493.61	688
494.006	682.6
494.422	697.6
494.84	664.2
495.235	704.4
495.652	685.4
496.069	679.6
496.465	676
496.883	687
497.3	711.2
497.696	687.6
498.113	685
498.509	665.6
498.927	680
499.344	674.2
499.741	668
500.158	690.4
500.576	698
500.973	677.2
501.39	673
501.787	670.4
502.205	679.2
502.623	680.4
503.02	665.8
503.438	671.8
503.856	671.4
504.253	673.8
504.671	686.6
505.068	677.8
505.486	679.6
505.905	696.8
506.302	684.8
506.72	698.4
507.118	674.6
507.536	671.2
507.955	670.8
508.352	687.6
508.771	686.8
509.169	689
509.587	670.8
510.006	675.8
510.404	660.4
510.823	665.6
511.221	669.6
511.64	680.8
512.038	694.6
512.457	676.4
512.877	677.2
513.275	668
513.694	679.2
514.092	686
514.512	683.6
514.91	678.2
515.33	681.6
515.749	682.6
516.148	688
516.568	680.4
516.966	679.4
517.386	679.8
517.785	676.8
518.205	675.6
518.603	676.2
519.024	672.2
519.444	679.6
519.843	693.2
520.263	697.2
520.662	683.8
521.082	677.8
521.481	682.4
521.902	684.6
522.301	677.4
522.722	673
523.121	681.6
523.542	679.2
523.963	682.6
524.362	685.8
524.783	673.2
525.183	679.8
525.604	677
526.003	665.4
526.425	670.6
526.824	683.6
527.246	683.6
527.646	686.4
528.067	673.6
528.467	677.8
528.888	674.8
529.289	674.4
529.71	675.4
530.11	674
530.532	674
530.932	669
531.354	670.6
531.755	705
532.176	691.2
532.577	682.8
532.999	686.2
533.4	673.2
533.822	689.4
534.223	675.6
534.645	666.6
535.046	679.6
535.468	686.6
535.869	691.4
536.292	659.2
536.693	723
537.115	675.8
537.516	667.6
537.939	662.8
538.34	696.4
538.742	679.6
539.165	686.2
539.566	669.4
539.989	662
540.391	665.8
540.814	678
541.216	674
541.639	671.2
542.041	680.4
542.464	669.2
542.866	649.4
543.268	662.2
543.691	680.4
544.093	686.2
544.517	700.8
544.919	666
545.343	695.6
545.745	660.8
546.147	680
546.571	670.2
546.974	667.4
547.398	677
547.8	691
548.224	681.8
548.627	667.6
549.03	675
549.454	669
549.857	665.4
550.281	673.4
550.684	665.4
551.087	690.2
551.512	683.6
551.915	682.6
552.34	668.4
552.743	676.4
553.146	679
553.571	686.8
553.975	698.4
554.399	671.2
554.803	730.4
555.207	666.4
555.632	661.2
556.036	672.6
556.461	673.8
556.865	674
557.268	662.6
557.694	675.2
558.098	674.4
558.502	671.8
558.927	663.2
559.332	673.2
559.736	679.4
560.162	675.6
560.566	667.2
560.992	675
561.396	672.6
561.801	668.6
562.227	680.6
562.631	670
563.036	666.6
563.462	678.6
563.867	679
564.272	659
564.698	667.2
565.103	669.4
565.508	693
565.935	663.4
566.34	674.2
566.745	686.2
567.172	667.4
567.577	691.2
567.982	682.2
568.409	671.8
568.815	659
569.22	668.8
569.626	682
570.053	649.6
570.459	673.4
570.865	671.8
571.292	672.6
571.698	675.2
572.104	658
572.531	664.8
572.937	684.8
573.343	670.6
573.75	672.2
574.177	675
574.583	673.2
574.99	681.2
575.396	669.8
575.824	659
576.231	679.4
576.637	670.2
577.065	689.6
577.472	658.2
577.879	667.6
578.286	695.6
578.714	660.4
579.121	671.6
579.528	671
579.935	683.2
580.364	670
580.771	649.8
581.178	667
581.585	677.2
582.014	679
582.421	648
582.829	663
583.236	686.2
583.644	664.4
584.073	669.2
584.481	673
584.889	665.6
585.296	670
585.726	673.4
586.134	659.6
586.542	670.8
586.95	688
587.358	655
587.787	663.6
588.196	668.2
588.604	673.8
589.012	671.4
589.421	669
589.851	661
590.259	680.2
590.668	665
591.076	714.4
591.485	663.4
591.894	663
592.324	686
592.733	682.6
593.142	659.6
593.551	668.8
593.96	670
594.369	657.4
594.8	665.2
595.209	665.2
595.618	655.6
596.028	655.2
596.437	647.4
596.847	668.8
597.256	664.8
597.687	682.2
598.097	668.6
598.507	653
598.917	673.2
599.327	675.6
599.736	667.8
600.146	680.4
600.556	670.4
600.988	678.2
601.398	664.2
601.808	675
602.219	658.4
602.629	674.4
603.039	675.2
603.45	703.6
603.86	672
604.271	687.4
604.703	671.4
605.114	666.8
605.525	676.6
605.935	675.8
606.346	702
606.757	679
607.168	679
607.579	659.8
607.99	684.8
608.402	675.4
608.813	668.6
609.224	665.4
609.636	671.4
610.047	665.4
610.48	670.2
610.892	680.8
611.303	679.6
611.715	662.6
612.127	661.8
612.539	667.6
612.95	669.4
613.362	665.6
613.774	664.8
614.186	655.8
614.599	665.2
615.011	683.8
615.423	664.4
615.835	667
616.248	661.2
616.66	670.8
617.073	666.2
617.485	662.6
617.898	681.8
618.311	673
618.723	669.4
619.136	705
619.549	685.6
619.962	696
620.375	668.2
620.788	664.6
621.201	661.2
621.614	682
622.028	668.8
622.441	675.2
622.854	681.4
623.268	661
623.681	669.4
624.095	663.6
624.509	683.6
624.922	675.6
625.336	650.4
625.728	661
626.142	675.8
626.556	688.6
626.97	673.2
627.384	665.2
627.799	673.2
628.213	679
628.627	660.8
629.041	671.4
629.456	660.2
629.87	671.4
630.285	672.8
630.699	681
631.093	664.6
631.507	674.8
631.922	674.8
632.337	686.4
632.752	670.6
633.167	665.8
633.582	667.4
633.997	665
634.412	662.2
634.806	665
635.221	652.6
635.637	680.2
636.052	656.2
636.468	670.6
636.883	690.8
637.299	667.2
637.715	651.8
638.109	669.4
638.525	651.4
638.941	677.4
639.357	671.2
639.773	676.2
640.189	667
640.584	667.8
641	660.8
641.416	657.8
641.832	662.6
642.249	664.2
642.665	674.4
643.06	672.8
643.477	675.4
643.894	652.4
644.31	663.4
644.727	661.4
645.123	662.6
645.54	651.6
645.957	669.6
646.374	687.6
646.77	670.8
647.187	704
647.604	669.6
648.021	657.6
648.439	665.2
648.835	671
649.252	676.6
649.67	659.8
650.088	669.8
650.484	674
650.902	672
651.32	680.2
651.738	657.4
652.134	669.4
652.552	691.4
652.971	670.4
653.389	657.2
653.786	687
654.204	691.4
654.622	657.6
655.019	666
655.438	676.8
655.857	665.8
656.275	672.6
656.673	653.8
657.091	754.6
657.51	664.6
657.908	669.2
658.327	686.8
658.746	654.2
659.144	667.2
659.563	684.8
659.982	657.6
660.38	655.4
660.8	670
661.219	682
661.617	669.6
662.037	662.6
662.457	683.4
662.855	649
663.275	703.6
663.695	670.2
664.094	663.4
664.514	668
664.934	658.8
665.333	680.6
665.753	658.4
666.152	661.6
666.572	659
666.993	676.8
667.392	664.2
667.812	658.6
668.212	662.6
668.632	671.4
669.053	652.8
669.453	665.2
669.874	672.6
670.273	665.4
670.694	647.4
671.116	674.4
671.515	669.2
671.937	655.2
672.337	660.8
672.758	667.2
673.158	668.4
673.58	650.4
673.98	670.6
674.402	680.8
674.824	655.8
675.224	665
675.646	664
676.047	659.8
676.469	664.6
676.869	672.4
677.292	663.6
677.693	656
678.115	659.6
678.516	671
678.939	670.6
679.34	669.4
679.762	667.2
680.164	669.8
680.586	653.2
680.988	662.4
681.411	701.2
681.812	667.4
682.236	661.2
682.637	664
683.061	658
683.462	670.2
683.864	669.8
684.288	671.4
684.69	660.2
685.114	670.6
685.516	676.6
685.94	654.6
686.342	670
686.766	664.6
687.168	665.2
687.571	685.6
687.995	675.2
688.398	650.4
688.822	665.2
689.225	679.2
689.628	690.2
690.052	662.8
690.456	673.8
690.88	663.2
691.284	667.6
691.687	674.6
692.112	657.4
692.515	651
692.919	670.8
693.344	666.8
693.747	661.6
694.173	658.6
694.577	673
694.98	664.8
695.406	659
695.81	675.2
696.214	675.6
696.64	657.6
697.044	665.2
697.448	672
697.874	665.4
698.279	664
698.684	648.2
699.11	652.4
699.514	662.6
699.919	658.4
700.324	655.2
700.75	664.6
701.156	662.2
701.561	667
701.987	662.2
702.393	667.6
702.798	677.2
703.203	665.4
703.63	656.4
704.036	663.2
704.442	666
704.847	653.8
705.274	659.8
705.68	669
706.086	680
706.492	662
706.92	656.6
707.326	684
707.732	654.4
708.139	666.2
708.545	648.8
708.973	662.2
709.38	663.2
709.786	647
710.193	678.4
710.6	669
711.028	656.2
711.435	663
711.842	669.6
712.249	666.2
712.656	658.4
713.064	675
713.492	652.6
713.9	652.4
714.307	663
714.715	666.4
715.123	670
715.53	667.2
715.938	678.2
716.367	669.8
716.775	657.8
717.184	654
717.592	662.8
718	672.6
718.408	708.6
718.816	722.2
719.225	670.6
719.633	659.2
720.042	652
720.472	654.6
720.881	685.8
721.29	671.8
721.699	660.4
722.108	672.4
722.517	669.6
722.926	654.4
723.335	680.2
723.744	670
724.154	667.2
724.563	673.2
724.973	663.4
725.382	652.8
725.792	663.8
726.202	653.8
726.612	690.8
727.022	667
727.432	661.6
779.813	665.4
780.223	720.6
780.634	663
781.044	653.6
781.454	671.6
781.865	668.2
782.276	656.6
782.686	678.4
783.097	660
783.508	657
783.919	670.8
784.33	685
784.741	674.8
785.152	657
785.563	649.6
785.974	655.6
786.386	671.8
786.776	666.8
787.188	664
787.599	660
788.011	682.8
788.423	669.2
788.835	666.8
789.247	659.2
789.659	651
790.071	662.4
790.483	705.2
790.874	662.6
791.286	670.2
791.699	658.2
792.111	659.4
792.524	671.2
792.937	664.2
793.349	653.2
793.741	649.8
794.154	658.8
794.567	682
794.98	656.4
795.393	651
795.785	678.6
796.198	655.4
796.612	664.4
797.026	660.4
797.439	636
797.831	653.4
798.245	650
798.659	658
799.073	656.8
799.487	656.6
799.88	664.6
800.294	654.8
800.708	665.2
801.123	660
801.516	682.6
801.93	649.6
802.345	645.8
802.76	682.4
803.153	680.8
803.568	681.8
803.983	671.2
804.377	668.6
804.792	654.2
805.207	643.8
805.601	666.6
806.016	711.6
806.432	658.4
806.826	701.2
807.242	677
807.658	662
808.052	664
808.468	662.4
808.884	661.6
809.279	661.8
809.695	684.8
810.111	693.8
810.506	671
810.922	684.2
811.339	668.6
811.734	670.6
812.151	652.4
812.546	654.4
812.963	650.2
813.38	665.8
813.776	657.2
814.193	690.8
814.589	651.8
815.006	659.8
815.402	648.4
815.82	651.6
816.237	655
816.633	653.4
817.051	653.6
817.448	662.6
817.866	638
818.262	679.4
818.68	655.8
819.077	660
819.495	644.4
819.892	699.8
820.311	650.6
820.708	652.8
821.127	652.2
821.524	672.4
821.943	678.4
822.34	677
822.759	658.2
823.157	661
823.576	675.4
823.974	661.6
824.393	738.4
824.791	657.6
825.189	646.4
825.609	655.8
826.007	667.8
826.427	653.4
826.826	656.2
827.246	661.8
827.644	646
828.043	677.2
828.463	660
828.862	660.4
829.261	670.6
829.682	651.6
830.081	678
830.502	645
830.901	672
831.301	649.6
831.722	649
832.121	667.8
832.521	649.6
832.943	661.6
833.342	660.4
833.742	653.4
834.164	655.2
834.564	658.2
834.965	664.8
835.386	654
835.787	660.2
836.188	660.4
836.588	666
837.01	667
837.411	653.8
837.812	663.4
838.213	663.6
838.636	658
839.037	742.4
839.438	663.4
839.84	665.6
840.263	655.4
840.664	670
841.066	659.4
841.468	664.4
841.891	660.6
842.293	665.4
842.695	667
843.098	681.2
843.5	652.6
843.902	657.4
844.326	660.6
844.729	665.6
845.131	672.6
845.534	669.6
845.937	675.2
846.34	674
846.764	653.2
847.167	660
847.571	645.8
847.974	658.4
848.377	660.2
848.781	705.2
849.184	674.8
849.588	652.8
849.992	655.8
850.396	656
850.821	676.4
851.225	661
851.63	654.2
852.034	671.6
852.438	648.8
852.843	793.4
853.247	650.8
853.652	651.8
854.057	683.6
854.462	661.4
854.867	660.2
855.272	695.4
855.677	653.4
856.082	653.4
856.487	645.4
856.893	663.4
