#lambda/nm	C1
208.295	550
208.67	500.8
209.045	461.4
209.419	458
209.794	691.8
210.169	677.8
210.544	814.4
210.919	702.8
211.295	675
211.67	693.8
212.045	693
212.421	690.6
212.796	734
213.172	685.4
213.547	688
213.923	691.2
214.299	682.8
214.675	700.2
215.051	689.6
215.427	704.8
215.803	711.2
216.179	692.6
216.555	675.4
216.932	696.2
217.308	694
217.684	690
218.061	696
218.438	692.6
218.814	682.2
219.191	705.6
219.568	678.6
219.945	683
220.322	694.8
220.699	696.8
221.076	704
221.453	692.6
221.83	685
222.208	689
222.585	688.8
222.962	691.8
223.34	695.8
223.717	692.2
224.095	687
224.473	682.8
224.851	689.8
225.229	687.4
225.607	707
225.985	673
226.363	690.6
226.741	692
227.119	687.6
227.497	702.2
227.876	676.6
228.254	697.4
228.633	694.8
229.011	697.2
229.39	694
229.769	693.8
230.148	707.6
230.527	711.4
230.905	680.4
231.284	696
231.664	688.6
232.043	703.4
232.422	697.4
232.801	689.4
233.181	704
233.56	687.4
233.94	687.6
234.319	671.2
234.699	692.6
235.079	738.4
235.458	732
235.838	708.8
236.218	679.6
236.598	686.8
236.978	676.2
237.358	680.6
237.738	681.6
238.119	703
238.499	679.4
238.88	683.6
239.26	701.8
239.641	679.2
240.021	684.4
240.402	684.8
240.783	677.8
241.163	687.4
241.544	686.6
241.925	691.6
242.306	701.4
242.687	674.6
243.069	692
243.45	690.4
243.831	681
244.212	687.4
244.594	729
244.975	692.8
245.357	693.2
245.739	679
246.12	694.8
246.502	713.8
246.884	688
247.266	694
247.648	693
248.03	718.8
248.412	686.4
248.794	694.6
249.176	690.4
249.559	702.4
249.941	674.8
250.323	683
250.706	687
251.089	697.4
251.471	695.4
251.854	690.8
252.237	681.4
252.62	694.8
253.002	694.2
253.385	692
253.769	705.6
254.152	685.8
254.535	701.6
254.918	675.6
255.301	693.8
255.685	690.8
256.068	687.6
256.452	721.8
256.835	709.2
257.219	705.4
257.603	703.2
257.986	686.2
258.37	690.6
258.754	677.8
259.138	701.6
259.522	709
259.906	683.8
260.29	681
260.675	694.8
261.059	692
261.443	680.6
261.828	697.8
262.212	693
262.597	678
262.981	683.2
263.366	698.6
263.751	684.2
264.136	682
264.521	676.4
264.906	672.6
265.291	704.6
265.676	690.4
266.061	693.4
266.446	699
266.831	686.6
267.217	706.4
267.602	686
267.987	692.6
268.373	683
268.759	700
269.144	697.4
269.53	699
269.916	683.8
270.302	679.6
270.688	695.4
271.074	686.4
271.46	702.6
271.846	729.6
272.232	693.8
272.618	685.8
273.004	699.8
273.391	707.6
273.777	704.4
274.164	698
274.55	707.6
274.937	694.2
275.324	696.6
275.71	694.4
276.097	701
276.484	683.6
276.871	697.6
277.258	697.8
277.645	676.6
278.032	691.2
278.419	690.6
278.807	695.2
279.194	680.6
279.581	686.6
279.969	699.2
280.356	695.8
280.744	687.8
281.131	725.2
281.519	709
281.907	682.6
282.295	688.2
282.682	704.6
283.07	695.8
283.458	698.6
283.846	709.4
284.235	703.2
284.623	697.6
285.011	674.6
285.399	698.2
285.788	691.2
286.176	677.8
286.565	700.4
286.953	691
287.342	684.6
287.731	682.8
288.119	680
288.508	692.4
288.897	694.2
289.286	683
289.675	693
290.064	698.2
290.453	692.6
290.821	688.2
291.21	715.6
291.599	695.2
291.989	699.6
292.378	694
292.768	716.2
293.157	689.4
293.547	698.8
293.936	686.8
294.326	678.6
294.716	701.8
295.106	685.4
295.496	701
295.886	698
296.276	695.2
296.666	680.4
297.056	687.8
297.446	681.8
297.836	708.8
298.227	688
298.617	699.8
299.008	708.4
299.398	692.4
299.789	687
300.179	703
300.57	711.8
300.961	689
301.352	693.8
301.742	709.8
302.133	682
302.524	687
302.915	691.8
303.307	682.8
303.698	705.6
304.089	698.8
304.48	697.6
304.872	700.8
305.263	687.4
305.655	692.4
306.046	693
306.438	702.2
306.829	688.6
307.221	711.4
307.613	707
308.005	707
308.397	710.6
308.789	716.6
309.181	726.8
309.573	711.4
309.965	706.4
310.357	695
310.749	710.6
311.142	680.4
311.534	683.8
311.926	696.8
312.319	696.2
312.711	690
313.104	720.6
313.497	689.2
313.889	738.6
314.282	710.8
314.675	729.4
315.068	706.6
315.461	709.2
315.854	733.2
316.247	707.4
316.64	691.2
317.033	693
317.405	708.4
317.798	690.4
318.192	705.2
318.585	679.8
318.979	699.6
319.372	686.8
319.766	693.2
320.16	705.4
320.553	709.4
320.947	719.6
321.341	694
321.735	695.8
322.129	685.8
322.523	718.6
322.917	682.2
323.311	704
323.705	695.6
324.099	695.2
324.494	713.4
324.888	708.6
325.282	692.2
325.677	707.6
326.071	699
326.466	711.2
326.861	696.8
327.255	707
327.65	721.2
328.045	712.8
328.44	698
328.835	692
329.23	688.6
329.625	720.4
330.02	682.6
330.415	712.4
330.81	696.4
331.206	694.6
331.601	688.6
331.996	706.6
332.37	714
332.766	690.2
333.161	726.6
333.557	690.6
333.953	701.6
334.348	1028.4
334.744	696.8
335.14	687.4
335.536	693.6
335.932	708.8
336.328	697.6
336.724	705.6
337.12	689.8
337.516	703.2
337.913	695.8
338.309	714
338.705	689
339.102	721.6
339.498	693.4
339.895	717.2
340.291	687.4
340.688	710.6
341.085	690.6
341.481	690
341.878	703.4
342.275	721
342.672	686
343.069	683.8
343.466	682.8
343.842	702.6
344.239	690.8
344.636	691
345.033	683
345.431	682.6
345.828	702.2
346.225	687.4
346.623	728.8
347.02	691.8
347.418	710.8
347.816	704.4
348.213	681.8
348.611	696.4
349.009	685.6
349.407	705.4
349.805	676.6
350.203	677.2
350.601	703.2
350.999	683.6
351.397	735
351.795	698.2
352.193	695.4
352.57	690.4
352.969	713.6
353.367	680
353.766	683.4
354.164	700.2
354.563	705.2
354.961	696
355.36	684.6
355.759	685.2
356.158	680
356.557	683.2
356.956	675.4
357.355	673.6
357.754	683.6
358.153	692.2
358.552	710.6
358.951	683.4
359.35	709.8
359.75	684.8
360.149	678.2
360.527	677.2
360.926	679.4
361.326	691.6
361.726	692.4
362.125	679.4
362.525	698.2
362.925	687.6
363.325	687.2
363.724	678
364.124	685.6
364.524	678.6
364.924	695.4
365.324	698
365.725	663.6
366.125	689.2
366.525	681.8
366.904	668
367.304	668.4
367.705	707.6
368.105	693.8
368.506	679.6
368.906	686.2
369.307	680.4
369.708	693.2
370.108	665
370.509	692.2
370.91	682.4
371.311	686.2
371.712	689
372.113	680
372.514	676.2
372.894	686.2
373.295	682
373.696	688
374.097	693
374.499	728.2
374.9	687.8
375.301	679.4
375.703	690.2
376.105	676.8
376.506	696.2
376.908	689
377.309	686
377.711	693.6
378.113	680.6
378.493	680.2
378.895	679
379.297	703.4
379.699	667.6
380.102	690
380.504	694
380.906	679.2
381.308	710.8
381.71	678.8
382.113	697.2
382.515	690
382.918	689.6
383.299	682.4
383.701	701.8
384.104	684.2
384.507	666.4
384.909	681.4
385.312	672.8
385.715	672.4
386.118	685.4
386.521	674
386.924	695.2
387.327	678.6
387.709	680
388.112	667.6
388.515	682.4
388.918	686.2
389.322	680
389.725	682.4
390.129	703.2
390.532	694
390.936	672.6
391.339	683.2
391.743	696.8
392.125	681.2
392.529	699.8
392.933	698.8
393.337	682.4
393.74	686.2
394.144	678.6
394.548	681.6
394.953	680
395.357	696
395.761	677.2
396.144	683
396.548	681.6
396.952	678.8
397.357	689.6
397.761	677.2
398.166	683.2
398.57	682.4
398.975	674.6
399.379	684.4
399.763	742.6
400.168	682.6
400.572	679.4
400.977	690.2
401.382	702.6
401.787	700
402.192	707.2
402.597	699.4
403.002	669
403.386	701
403.791	704.8
404.197	679.8
404.602	685.4
405.007	681.4
405.413	682.4
405.818	686.4
406.224	676.6
406.608	677.8
407.014	685
407.42	696
407.825	671.4
408.231	697.4
408.637	687.4
409.043	707.8
409.449	681.4
409.834	680.6
410.24	693.2
410.646	698.8
411.052	700.2
411.458	691.2
411.865	698.8
412.271	699.6
412.677	689
413.062	687.6
413.469	672.2
413.875	715.2
414.282	706
414.689	696.2
415.095	685.4
415.502	681.8
415.888	689.4
416.294	674.6
416.701	729.4
417.108	682.8
417.515	692.8
417.923	689.6
418.33	707
418.715	690
419.123	688.2
419.53	676.2
419.937	682.4
420.345	696.8
420.752	688
421.16	707.8
421.546	687.8
421.953	695.6
422.361	679.4
422.769	680.4
423.177	678.6
423.585	714.2
423.992	713.8
424.379	702.4
424.787	700.6
425.195	709.6
425.603	693
426.011	706.2
426.419	708
426.806	681
427.214	691
427.623	701
428.031	705.8
428.44	684.8
428.848	703.4
429.235	706.6
429.644	686.4
430.053	699
430.461	713.2
430.87	719.8
431.279	697.8
431.666	682.4
432.075	686.4
432.484	693
432.893	685.6
433.302	705.4
433.711	745.2
434.099	697.4
434.508	685.4
434.918	684.2
435.327	689.4
435.737	686.8
436.125	692
436.534	694.4
436.944	698.4
437.353	689.2
437.763	722.8
438.173	678.6
438.561	700.2
438.971	673.8
439.381	693.8
439.791	695.6
440.201	667.4
440.589	697.8
440.999	706.2
441.409	691.6
441.819	682.6
442.23	706.2
442.619	696.8
443.029	695.8
443.439	695.4
443.85	703
444.26	709.6
444.649	696
445.06	698.2
445.471	689.4
445.881	696.2
446.292	712.6
446.682	720.8
447.092	676.8
447.503	753.2
447.914	700.2
448.325	697.2
448.715	688
449.126	687.2
449.537	698.6
449.948	694.2
450.338	699.6
450.75	704.8
451.161	697
451.572	705.2
451.984	692.2
452.374	682.6
452.786	693.2
453.197	707.2
453.609	706.8
453.999	686.8
454.411	682.6
454.823	701.6
455.235	702.4
455.647	685.8
456.037	701.4
456.449	681.2
456.862	692.8
457.274	702.4
457.665	691.8
458.077	703
458.489	736.8
458.902	700.8
459.293	703.6
459.705	701
460.118	684.2
460.53	706.4
460.921	698
461.334	708.8
461.747	698.2
462.16	718.2
462.551	720.4
462.964	703.6
463.377	690.8
463.79	694
464.182	716.6
464.595	685.6
465.008	698.8
465.421	707.2
465.813	696.4
466.226	707.4
466.64	698.6
467.053	755.4
467.445	707.4
467.859	718
468.272	711.2
468.686	713.6
469.078	699.8
469.492	687.2
469.906	708.4
470.298	704.2
470.712	689.6
471.126	758.8
471.54	692
471.933	689.2
472.347	695.6
472.761	692
473.175	691.8
473.568	699.2
473.982	685.4
474.397	699.8
474.79	702.4
475.204	706.4
475.619	696.4
476.033	704.4
476.426	698.2
476.841	694.8
477.256	735.6
477.649	684.2
478.064	686.6
478.479	694.6
478.872	689
479.287	692.2
479.702	697.2
480.118	699.6
480.511	703
480.927	703.4
481.342	697.8
481.736	696.4
482.151	698
482.566	712
482.96	695.8
483.376	716.4
483.792	691.2
484.186	698.8
484.602	694
485.017	693
485.412	695.4
485.827	699
486.243	694.2
486.638	724
487.054	700.8
487.47	720.6
487.865	697.8
488.281	688
488.697	695.2
489.092	698.8
489.508	692
489.925	715
490.32	689.6
490.736	704.6
491.153	701.6
491.548	699.2
491.964	704.2
492.381	687.6
492.776	698
493.193	693.4
493.61	710.4
494.006	695.4
494.422	701.6
494.84	681.8
495.235	701.8
495.652	698.2
496.069	696.2
496.465	685
496.883	701.4
497.3	734.4
497.696	684.4
498.113	704
498.509	683.4
498.927	679
499.344	687.8
499.741	689.6
500.158	698.2
500.576	695.2
500.973	697.6
501.39	678.6
501.787	685.4
502.205	698
502.623	691
503.02	679
503.438	688.6
503.856	678.2
504.253	689.8
504.671	693.4
505.068	688.6
505.486	692.8
505.905	714.4
506.302	690.6
506.72	701.6
507.118	684.2
507.536	696
507.955	691
508.352	694.6
508.771	697
509.169	695.6
509.587	685.8
510.006	700.8
510.404	682
510.823	686.2
511.221	680.2
511.64	686.8
512.038	699
512.457	692.2
512.877	687
513.275	682
513.694	673.6
514.092	678.8
514.512	686.6
514.91	682
515.33	688.2
515.749	680
516.148	695
516.568	689.4
516.966	687.8
517.386	683.6
517.785	684.6
518.205	680.2
518.603	679.2
519.024	676
519.444	683.6
519.843	700
520.263	696.2
520.662	693
521.082	686.8
521.481	688.8
521.902	683.2
522.301	686.2
522.722	694.4
523.121	686.8
523.542	680.2
523.963	678
524.362	675
524.783	689.4
525.183	686
525.604	694
526.003	670.8
526.425	675.6
526.824	691.4
527.246	695
527.646	705.2
528.067	681.8
528.467	687.2
528.888	691.6
529.289	676.6
529.71	690.4
530.11	687.2
530.532	691.2
530.932	671.2
531.354	661.6
531.755	714.6
532.176	692
532.577	679.8
532.999	686.8
533.4	676.4
533.822	691.4
534.223	680
534.645	680.4
535.046	671
535.468	685.8
535.869	691.4
536.292	670.8
536.693	722
537.115	683.2
537.516	671.8
537.939	675.6
538.34	695.4
538.742	698
539.165	680.6
539.566	690.6
539.989	666.6
540.391	670.2
540.814	682.6
541.216	684.8
541.639	671
542.041	688
542.464	672
542.866	677.8
543.268	671.4
543.691	696.8
544.093	686.8
544.517	704.4
544.919	668.4
545.343	704.6
545.745	674.6
546.147	678.2
546.571	680.2
546.974	667.6
547.398	676.2
547.8	683.4
548.224	685.2
548.627	678.2
549.03	684.8
549.454	673.2
549.857	661.2
550.281	670
550.684	671.2
551.087	688
551.512	675.2
551.915	676.2
552.34	674
552.743	676.8
553.146	674
553.571	681.6
553.975	696.8
554.399	670.4
554.803	723
555.207	676
555.632	666.4
556.036	685.4
556.461	670.4
556.865	674.2
557.268	673
557.694	674.8
558.098	687
558.502	681.8
558.927	657.8
559.332	671.6
559.736	677
560.162	677.4
560.566	674.4
560.992	677
561.396	680.8
561.801	674
562.227	676.8
562.631	681.8
563.036	672.6
563.462	692.4
563.867	682.6
564.272	671.4
564.698	676.8
565.103	666
565.508	692
565.935	670.4
566.34	673.6
566.745	687.4
567.172	668
567.577	693.4
567.982	693
568.409	689.6
568.815	667.8
569.22	676
569.626	681.8
570.053	660.2
570.459	672.6
570.865	675.4
571.292	681.4
571.698	678.6
572.104	650.4
572.531	666.8
572.937	678
573.343	674
573.75	674.6
574.177	676.4
574.583	688
574.99	674.6
575.396	671
575.824	673.4
576.231	674.8
576.637	670.2
577.065	692
577.472	668.4
577.879	667.6
578.286	684.2
578.714	654.2
579.121	668.4
579.528	667.4
579.935	677.4
580.364	665.2
580.771	660.4
581.178	657.8
581.585	672.2
582.014	679.8
582.421	665
582.829	676.8
583.236	672
583.644	665
584.073	667.8
584.481	676
584.889	653.4
585.296	681.4
585.726	669.8
586.134	673.4
586.542	659.2
586.95	691.6
587.358	654
587.787	672.8
588.196	660.2
588.604	667.8
589.012	666.8
589.421	662.4
589.851	668.4
590.259	681
590.668	666.2
591.076	712.8
591.485	673.6
591.894	674.6
592.324	687
592.733	683
593.142	654.2
593.551	675.8
593.96	669.2
594.369	663.6
594.8	663.6
595.209	668.2
595.618	652
596.028	667.2
596.437	663.2
596.847	668.2
597.256	672
597.687	672.8
598.097	671.4
598.507	660
598.917	673
599.327	680
599.736	671.8
600.146	682.6
600.556	672.4
600.988	685.6
601.398	664.4
601.808	687.6
602.219	656.8
602.629	678.6
603.039	675.2
603.45	709.6
603.86	677.8
604.271	689.2
604.703	684.4
605.114	677.2
605.525	674.2
605.935	670
606.346	683.6
606.757	682.2
607.168	665.8
607.579	658.6
607.99	685.6
608.402	672.6
608.813	666.8
609.224	657
609.636	665.6
610.047	661.4
610.48	672.2
610.892	682.2
611.303	676.4
611.715	667.6
612.127	655.6
612.539	664.2
612.95	676.4
613.362	663.8
613.774	661
614.186	661.4
614.599	667.6
615.011	685.4
615.423	671.4
615.835	653.6
616.248	658.8
616.66	670
617.073	647.8
617.485	667
617.898	679.2
618.311	670.2
618.723	669
619.136	700.4
619.549	686.4
619.962	693
620.375	667.4
620.788	679.6
621.201	667.8
621.614	683.6
622.028	670.4
622.441	679.6
622.854	685.4
623.268	655.8
623.681	676
624.095	670
624.509	679.6
624.922	680.4
625.336	656.2
625.728	674.6
626.142	674.4
626.556	688.2
626.97	672.8
627.384	656.2
627.799	668
628.213	683.6
628.627	663.6
629.041	667.4
629.456	666.6
629.87	665.6
630.285	674.2
630.699	681.8
631.093	664.6
631.507	670
631.922	676.4
632.337	679
632.752	652.6
633.167	673
633.582	666
633.997	664.2
634.412	662.2
634.806	667
635.221	655.6
635.637	684.2
636.052	659.4
636.468	673
636.883	689.4
637.299	671.6
637.715	655.2
638.109	660.2
638.525	660
638.941	682.6
639.357	670.6
639.773	678
640.189	668
640.584	665.2
641	673
641.416	649.8
641.832	665.8
642.249	670
642.665	663.6
643.06	663.4
643.477	670.2
643.894	644.2
644.31	664.8
644.727	655.2
645.123	674.6
645.54	661.8
645.957	665.8
646.374	683.8
646.77	671.8
647.187	707.6
647.604	664.6
648.021	661
648.439	670.4
648.835	673.2
649.252	663.6
649.67	664
650.088	667
650.484	675.4
650.902	678.4
651.32	672.6
651.738	664.4
652.134	670.4
652.552	684.2
652.971	668
653.389	664
653.786	680
654.204	689.6
654.622	659.4
655.019	661
655.438	664.2
655.857	674.2
656.275	670.8
656.673	651.6
657.091	757
657.51	663.4
657.908	675.4
658.327	689.4
658.746	659
659.144	661
659.563	674.8
659.982	675.4
660.38	654.2
660.8	664
661.219	675
661.617	674.6
662.037	661.4
662.457	679.4
662.855	645.8
663.275	693.2
663.695	669.2
664.094	654.6
664.514	663.8
664.934	662.8
665.333	672.6
665.753	657.8
666.152	650.8
666.572	649
666.993	674.4
667.392	663.6
667.812	661.6
668.212	661.6
668.632	685.8
669.053	661
669.453	671.4
669.874	667.8
670.273	666.6
670.694	655
671.116	684.6
671.515	678.2
671.937	670.2
672.337	669.6
672.758	665.2
673.158	680.4
673.58	658.2
673.98	666.6
674.402	678.4
674.824	658.2
675.224	656
675.646	655
676.047	656.4
676.469	662.8
676.869	666.8
677.292	673.4
677.693	662.8
678.115	659.4
678.516	669.6
678.939	669.6
679.34	666.2
679.762	669
680.164	664
680.586	656.6
680.988	657.2
681.411	693.4
681.812	671
682.236	654.4
682.637	650
683.061	654.2
683.462	662.6
683.864	656.6
684.288	666
684.69	662.8
685.114	675.4
685.516	668.4
685.94	662.2
686.342	671.8
686.766	656.6
687.168	652.2
687.571	678.6
687.995	669.8
688.398	653.8
688.822	656
689.225	678.6
689.628	686.8
690.052	666.2
690.456	675.6
690.88	673.2
691.284	659.6
691.687	662.4
692.112	656.8
692.515	653.8
692.919	662
693.344	671.6
693.747	669.2
694.173	653.6
694.577	683.4
694.98	658.2
695.406	655.2
695.81	667
696.214	669.2
696.64	662.4
697.044	664.8
697.448	671
697.874	662.4
698.279	662.4
698.684	660.6
699.11	664.4
699.514	674.6
699.919	661.4
700.324	654.2
700.75	682
701.156	662.2
701.561	683
701.987	665.2
702.393	680.4
702.798	672.4
703.203	666.2
703.63	659
704.036	659.8
704.442	664.6
704.847	662.2
705.274	660.6
705.68	662
706.086	672.4
706.492	659.2
706.92	658.8
707.326	668
707.732	661
708.139	663.2
708.545	654.4
708.973	662
709.38	666
709.786	643
710.193	684.2
710.6	664.6
711.028	655.6
711.435	659
711.842	656
712.249	661.4
712.656	667.2
713.064	682
713.492	649.6
713.9	655.4
714.307	668.6
714.715	662.6
715.123	663.8
715.53	661.6
715.938	675.2
716.367	662.6
716.775	667
717.184	652
717.592	667.2
718	681
718.408	704
718.816	718.2
719.225	669.4
719.633	666.8
720.042	662.6
720.472	661.4
720.881	688
721.29	666.6
721.699	659
722.108	667.4
722.517	668
722.926	662.8
723.335	674
723.744	662.8
724.154	672.6
724.563	663.8
724.973	666.6
725.382	656.4
725.792	665.4
726.202	651
726.612	693
727.022	666.2
727.432	662
779.813	661.2
780.223	710.6
780.634	661.8
781.044	654.8
781.454	661.6
781.865	667.2
782.276	657
782.686	663.6
783.097	667
783.508	667.6
783.919	659.8
784.33	673.8
784.741	684
785.152	660.2
785.563	639.8
785.974	654.2
786.386	679.4
786.776	657
787.188	656.2
787.599	656.4
788.011	669.2
788.423	658.4
788.835	659.4
789.247	650.4
789.659	660.2
790.071	657.6
790.483	710.4
790.874	655
791.286	667.8
791.699	655.6
792.111	661.4
792.524	662.6
792.937	667.8
793.349	656.4
793.741	658.6
794.154	658.2
794.567	681.6
794.98	658.4
795.393	653.2
795.785	675.6
796.198	659.6
796.612	658.6
797.026	648
797.439	647.6
797.831	661.4
798.245	640.6
798.659	661.6
799.073	647.2
799.487	650
799.88	662.4
800.294	659
800.708	663.4
801.123	658.4
801.516	675.2
801.93	656.6
802.345	652.6
802.76	664.8
803.153	673.8
803.568	679.6
803.983	668.6
804.377	665
804.792	655.4
805.207	644.8
805.601	666.4
806.016	691.8
806.432	658.4
806.826	701.2
807.242	682
807.658	668.6
808.052	668.4
808.468	659.2
808.884	658
809.279	658.2
809.695	669.8
810.111	686.4
810.506	656.4
810.922	684
811.339	659.8
811.734	672
812.151	654.4
812.546	654
812.963	651.8
813.38	667.8
813.776	664.6
814.193	681.2
814.589	652
815.006	656.8
815.402	656
815.82	655.6
816.237	651.8
816.633	656.6
817.051	644.2
817.448	660.6
817.866	649.6
818.262	689.6
818.68	654
819.077	657.4
819.495	658.4
819.892	704
820.311	655.2
820.708	660.8
821.127	660.4
821.524	674
821.943	662.4
822.34	680.6
822.759	665
823.157	657.8
823.576	674.2
823.974	673
824.393	790.6
824.791	654
825.189	647.8
825.609	656.4
826.007	661.8
826.427	645.6
826.826	659.4
827.246	658
827.644	641.6
828.043	676.2
828.463	659
828.862	675.4
829.261	660.2
829.682	644.6
830.081	666.6
830.502	646
830.901	655
831.301	655.6
831.722	645.2
832.121	656.2
832.521	650.2
832.943	658.8
833.342	661
833.742	640.2
834.164	655.8
834.564	644.6
834.965	657.4
835.386	654.2
835.787	648.8
836.188	659.4
836.588	662.4
837.01	659
837.411	649.6
837.812	662.4
838.213	660.8
838.636	653.6
839.037	734.6
839.438	660
839.84	652.8
840.263	662.6
840.664	665.2
841.066	660
841.468	666
841.891	651.8
842.293	660.6
842.695	665
843.098	673.6
843.5	661.8
843.902	662.2
844.326	670.8
844.729	656.4
845.131	670.8
845.534	660.2
845.937	675.8
846.34	686.8
846.764	653.6
847.167	653.2
847.571	659.8
847.974	662.2
848.377	658.4
848.781	708
849.184	674.8
849.588	662.6
849.992	655.2
850.396	663.8
850.821	679.4
851.225	668
851.63	660.8
852.034	679.6
852.438	653
852.843	717
853.247	641.6
853.652	656.6
854.057	675.6
854.462	655
854.867	668.4
855.272	699.8
855.677	671.6
856.082	661.4
856.487	648.4
856.893	661.4
857.298	659.6
857.704	650.2
858.11	667.2
