#lambda/nm	C1
208.295	558.6
208.67	504.4
209.045	467.6
209.419	463.6
209.794	692.8
210.169	675
210.544	802.4
210.919	694
211.295	675.6
211.67	694.2
212.045	681
212.421	682.2
212.796	716
213.172	682
213.547	685.2
213.923	686.4
214.299	684
214.675	692
215.051	691.6
215.427	695
215.803	711
216.179	689.8
216.555	680.8
216.932	690.8
217.308	684.8
217.684	690.6
218.061	689.6
218.438	683.6
218.814	683.4
219.191	693.2
219.568	683.6
219.945	685.6
220.322	684.8
220.699	691.8
221.076	699
221.453	685.4
221.83	682.8
222.208	683.2
222.585	680.2
222.962	695.2
223.34	694.4
223.717	689.8
224.095	688.6
224.473	694.4
224.851	681.4
225.229	682
225.607	705.4
225.985	667.2
226.363	679.2
226.741	682.4
227.119	682.2
227.497	698.4
227.876	665.6
228.254	692.8
228.633	688.6
229.011	686.4
229.39	691.8
229.769	690.4
230.148	689.4
230.527	705.6
230.905	683.4
231.284	685.4
231.664	679.6
232.043	704.6
232.422	694.2
232.801	681.4
233.181	685.2
233.56	686.2
233.94	689
234.319	679.2
234.699	687.2
235.079	729.8
235.458	732.6
235.838	714.6
236.218	683.6
236.598	675
236.978	678.2
237.358	673.4
237.738	684.6
238.119	694.4
238.499	680.8
238.88	686.2
239.26	705.8
239.641	675.4
240.021	687.6
240.402	688.6
240.783	684.6
241.163	682.4
241.544	698.8
241.925	686
242.306	705.6
242.687	683.2
243.069	690.4
243.45	695.2
243.831	678.6
244.212	684.6
244.594	728.6
244.975	695.8
245.357	687.8
245.739	675.4
246.12	692.2
246.502	707
246.884	681.2
247.266	684.8
247.648	681.4
248.03	714
248.412	686
248.794	700.8
249.176	687.8
249.559	706.8
249.941	685.4
250.323	673
250.706	688.2
251.089	686
251.471	689.2
251.854	682
252.237	678.2
252.62	698.2
253.002	687.8
253.385	686.6
253.769	691.6
254.152	678.8
254.535	697
254.918	679.4
255.301	683.2
255.685	683.6
256.068	680.8
256.452	710.8
256.835	699.2
257.219	694
257.603	695.4
257.986	678.6
258.37	693.4
258.754	671.6
259.138	695.2
259.522	700.6
259.906	686.6
260.29	687.6
260.675	687
261.059	684
261.443	678.8
261.828	687.8
262.212	694.4
262.597	670.4
262.981	675.6
263.366	686
263.751	681.4
264.136	674.8
264.521	685.6
264.906	677.4
265.291	686
265.676	682.8
266.061	694.2
266.446	705.4
266.831	689.2
267.217	706.8
267.602	679.8
267.987	676.8
268.373	677.2
268.759	689.8
269.144	690.8
269.53	681
269.916	679
270.302	671.4
270.688	687.4
271.074	680.6
271.46	685.6
271.846	720.8
272.232	678.2
272.618	681.2
273.004	682.4
273.391	699
273.777	699.8
274.164	689.6
274.55	711
274.937	691
275.324	688.4
275.71	692.4
276.097	692.6
276.484	676.6
276.871	694.2
277.258	688.2
277.645	669.6
278.032	684
278.419	692.2
278.807	699.4
279.194	676.4
279.581	681.4
279.969	695.2
280.356	693
280.744	687.4
281.131	709
281.519	696.8
281.907	684.2
282.295	685
282.682	702.6
283.07	695.2
283.458	701.2
283.846	695.8
284.235	698.6
284.623	696.2
285.011	683.6
285.399	685.2
285.788	688.6
286.176	669.8
286.565	703.6
286.953	681.6
287.342	676.8
287.731	675.6
288.119	684.4
288.508	683
288.897	689
289.286	670.8
289.675	686
290.064	699.8
290.453	678
290.821	690.8
291.21	699
291.599	677.6
291.989	686
292.378	699.2
292.768	705.2
293.157	696.2
293.547	700.2
293.936	685.4
294.326	689.4
294.716	684.8
295.106	682.6
295.496	700.6
295.886	701.4
296.276	681.2
296.666	680
297.056	681.4
297.446	676.4
297.836	707.2
298.227	691
298.617	687.6
299.008	701.6
299.398	686.6
299.789	680.2
300.179	696.8
300.57	707.2
300.961	689.2
301.352	690.2
301.742	695.2
302.133	696.2
302.524	686.2
302.915	697
303.307	681.2
303.698	694
304.089	707.2
304.48	686.4
304.872	695.4
305.263	691.6
305.655	680.8
306.046	705
306.438	694.2
306.829	685.2
307.221	701.6
307.613	692.2
308.005	704
308.397	708.8
308.789	713.8
309.181	723.4
309.573	712.2
309.965	712
310.357	682.4
310.749	695
311.142	692.2
311.534	683.2
311.926	690
312.319	689.2
312.711	689
313.104	710.6
313.497	688.6
313.889	734.4
314.282	713
314.675	706
315.068	691.4
315.461	699.4
315.854	724.6
316.247	693.6
316.64	687
317.033	693
317.405	700.4
317.798	694
318.192	701.8
318.585	685
318.979	696.4
319.372	685.2
319.766	685.8
320.16	695.2
320.553	708.4
320.947	720.8
321.341	687.8
321.735	691
322.129	676.8
322.523	721.4
322.917	686.4
323.311	700
323.705	698.4
324.099	696.6
324.494	712
324.888	706.8
325.282	685.4
325.677	697.4
326.071	710.8
326.466	700
326.861	699.4
327.255	698.4
327.65	711.6
328.045	708.6
328.44	700
328.835	691.8
329.23	682
329.625	717
330.02	689.2
330.415	723.4
330.81	693.4
331.206	686.6
331.601	685
331.996	698.8
332.37	713.6
332.766	679.4
333.161	713
333.557	676.8
333.953	690.8
334.348	1011
334.744	689
335.14	676.6
335.536	688
335.932	707.4
336.328	684
336.724	708.2
337.12	696.4
337.516	694.4
337.913	692.4
338.309	704.6
338.705	690.6
339.102	701.2
339.498	693.4
339.895	700.6
340.291	686.4
340.688	700.4
341.085	690.6
341.481	686.4
341.878	691.2
342.275	709.4
342.672	674.8
343.069	686.2
343.466	687.4
343.842	700.4
344.239	690
344.636	692.4
345.033	684.4
345.431	681.8
345.828	690.4
346.225	690
346.623	726
347.02	688
347.418	697.8
347.816	705
348.213	682.4
348.611	698.4
349.009	688.4
349.407	705.8
349.805	670
350.203	672.6
350.601	700
350.999	679.4
351.397	762.2
351.795	694
352.193	685.8
352.57	699
352.969	698.8
353.367	675.8
353.766	678.6
354.164	683.4
354.563	697.6
354.961	680
355.36	681.4
355.759	678.8
356.158	677.8
356.557	690.6
356.956	675.4
357.355	672.8
357.754	700.6
358.153	690.2
358.552	716.8
358.951	686.6
359.35	693.8
359.75	682.2
360.149	677.6
360.527	670.8
360.926	668.4
361.326	686.6
361.726	677.4
362.125	678.2
362.525	697.2
362.925	684.8
363.325	688.2
363.724	685
364.124	680
364.524	674.2
364.924	684.6
365.324	693
365.725	674.2
366.125	688.6
366.525	680
366.904	678.4
367.304	664.2
367.705	695.4
368.105	692.8
368.506	680.2
368.906	681.4
369.307	682.8
369.708	691.6
370.108	669
370.509	686.4
370.91	676.4
371.311	690.8
371.712	681
372.113	676.4
372.514	667.2
372.894	674.8
373.295	665.8
373.696	694.6
374.097	685
374.499	709.6
374.9	682.8
375.301	673.6
375.703	685.4
376.105	663.2
376.506	684
376.908	683.2
377.309	679
377.711	683.8
378.113	680.2
378.493	681.4
378.895	672.2
379.297	696.6
379.699	655.8
380.102	682
380.504	683.8
380.906	679.8
381.308	710.6
381.71	678.4
382.113	690.2
382.515	677.2
382.918	693.2
383.299	675.8
383.701	699.2
384.104	685
384.507	673.2
384.909	672.2
385.312	672.2
385.715	671.4
386.118	687
386.521	663.2
386.924	694.2
387.327	667.2
387.709	668.2
388.112	662.8
388.515	685.6
388.918	676.4
389.322	689.6
389.725	670.6
390.129	702.2
390.532	681.2
390.936	681
391.339	661.4
391.743	679.6
392.125	671.2
392.529	682
392.933	695.8
393.337	683.8
393.74	672.6
394.144	679.8
394.548	665.8
394.953	679
395.357	693.2
395.761	667.4
396.144	673.6
396.548	671.4
396.952	681.2
397.357	678
397.761	673.4
398.166	674.8
398.57	674
398.975	665.4
399.379	686.6
399.763	739.8
400.168	682.2
400.572	681
400.977	679.2
401.382	705.2
401.787	691.2
402.192	699.2
402.597	701.2
403.002	670
403.386	692.2
403.791	692
404.197	673.2
404.602	677
405.007	680.4
405.413	671.6
405.818	685.2
406.224	676.6
406.608	675.8
407.014	672.2
407.42	696
407.825	669.4
408.231	693.2
408.637	689
409.043	700.4
409.449	682.2
409.834	670.6
410.24	683.4
410.646	698.4
411.052	697.8
411.458	692.4
411.865	687.2
412.271	691
412.677	691.6
413.062	690.2
413.469	663
413.875	710.8
414.282	695.4
414.689	694.4
415.095	698
415.502	672
415.888	688.8
416.294	663.8
416.701	730
417.108	677.6
417.515	701
417.923	686.2
418.33	696.4
418.715	693.2
419.123	686.6
419.53	692.6
419.937	692
420.345	703.2
420.752	683.4
421.16	699.8
421.546	686.2
421.953	699.2
422.361	674.4
422.769	681.6
423.177	676.6
423.585	710.4
423.992	704.2
424.379	692
424.787	693.8
425.195	699.4
425.603	685.2
426.011	704
426.419	695.4
426.806	684.6
427.214	686.2
427.623	703
428.031	700
428.44	685
428.848	706.2
429.235	713.4
429.644	691
430.053	698.4
430.461	700.8
430.87	715.6
431.279	695
431.666	686
432.075	683
432.484	680
432.893	687
433.302	708.4
433.711	743.4
434.099	690.6
434.508	685.4
434.918	680.6
435.327	689.4
435.737	691.4
436.125	688
436.534	694.4
436.944	694.8
437.353	697.2
437.763	714.4
438.173	684.2
438.561	703.4
438.971	676
439.381	690.6
439.791	694.4
440.201	668.6
440.589	699.8
440.999	706.4
441.409	693.6
441.819	683.8
442.23	701.8
442.619	714.2
443.029	704.2
443.439	707.4
443.85	720
444.26	728.2
444.649	705
445.06	706.8
445.471	700.4
445.881	698.4
446.292	719
446.682	725.2
447.092	690.2
447.503	759.8
447.914	707.2
448.325	713.4
448.715	705.8
449.126	703.2
449.537	707.8
449.948	718.4
450.338	700.8
450.75	717
451.161	703.2
451.572	713.2
451.984	704.4
452.374	684.4
452.786	706.6
453.197	715
453.609	725.8
453.999	710.2
454.411	696.8
454.823	726.8
455.235	717.6
455.647	699.6
456.037	716
456.449	694.4
456.862	721
457.274	715.4
457.665	706.2
458.077	717.8
458.489	753.8
458.902	704
459.293	719.4
459.705	720.8
460.118	711.4
460.53	721.4
460.921	725.2
461.334	724.2
461.747	717.6
462.16	728.6
462.551	739.6
462.964	726
463.377	705.4
463.79	720.4
464.182	731.2
464.595	717.4
465.008	722.6
465.421	714.4
465.813	712.8
466.226	727.2
466.64	719
467.053	778
467.445	741.2
467.859	737
468.272	729.6
468.686	732.4
469.078	727.4
469.492	706.4
469.906	726.4
470.298	725.2
470.712	712
471.126	770.4
471.54	716.4
471.933	711.8
472.347	720
472.761	712.4
473.175	707.8
473.568	722.4
473.982	697.6
474.397	727
474.79	720.2
475.204	730.6
475.619	712.8
476.033	716.8
476.426	719.6
476.841	698.6
477.256	740.2
477.649	715.6
478.064	700.4
478.479	708.4
478.872	719.8
479.287	698.4
479.702	711.4
480.118	708
480.511	707.6
480.927	717
481.342	712.6
481.736	712
482.151	708
482.566	721.8
482.96	725.6
483.376	725.2
483.792	719.8
484.186	726.8
484.602	718.6
485.017	716.4
485.412	719.6
485.827	724.4
486.243	710.6
486.638	743.4
487.054	726.8
487.47	733
487.865	714.6
488.281	708.6
488.697	717
489.092	713.2
489.508	703.2
489.925	729.6
490.32	708.2
490.736	729.4
491.153	723.8
491.548	715.4
491.964	724.6
492.381	690.8
492.776	716.6
493.193	720.4
493.61	720.8
494.006	708.4
494.422	718.2
494.84	702.8
495.235	718.2
495.652	703.8
496.069	702.8
496.465	699
496.883	697
497.3	740.8
497.696	699.2
498.113	713.4
498.509	696.8
498.927	700
499.344	695.6
499.741	695.8
500.158	723.8
500.576	717.2
500.973	711.2
501.39	699.6
501.787	699
502.205	708.6
502.623	700.4
503.02	697.2
503.438	699.6
503.856	704.6
504.253	710.2
504.671	700
505.068	696.2
505.486	695
505.905	725.2
506.302	705.8
506.72	717.4
507.118	691.6
507.536	701.8
507.955	694.2
508.352	704.2
508.771	719.6
509.169	699.8
509.587	693.4
510.006	697.2
510.404	687
510.823	695.4
511.221	693.4
511.64	692.4
512.038	718
512.457	693
512.877	694.8
513.275	696.4
513.694	694.6
514.092	697.2
514.512	704.2
514.91	695.6
515.33	690.8
515.749	701
516.148	696.6
516.568	691.6
516.966	695.8
517.386	687.2
517.785	691.4
518.205	698.6
518.603	688.6
519.024	681.2
519.444	698.4
519.843	710
520.263	704.4
520.662	698
521.082	690.4
521.481	693.8
521.902	689.6
522.301	698
522.722	696.4
523.121	695
523.542	695.4
523.963	691.4
524.362	686.2
524.783	704.4
525.183	687.4
525.604	694.4
526.003	684.8
526.425	672.4
526.824	701.6
527.246	706.8
527.646	701
528.067	693
528.467	678.4
528.888	697
529.289	679.8
529.71	696.6
530.11	682
530.532	681.6
530.932	677.2
531.354	691.4
531.755	728.2
532.176	699.8
532.577	688.2
532.999	687.8
533.4	685.4
533.822	707.2
534.223	690
534.645	688.8
535.046	686.6
535.468	696.6
535.869	703.6
536.292	682.8
536.693	721.8
537.115	692.4
537.516	680.8
537.939	683.8
538.34	701
538.742	700.6
539.165	683.4
539.566	689
539.989	673
540.391	686.6
540.814	686.2
541.216	688.8
541.639	687.6
542.041	694.8
542.464	678.4
542.866	683.8
543.268	679
543.691	691
544.093	686.6
544.517	714
544.919	671.6
545.343	699.6
545.745	672.8
546.147	685.6
546.571	677.6
546.974	677.8
547.398	693.2
547.8	697.6
548.224	684.2
548.627	676.2
549.03	687
549.454	670.6
549.857	671.4
550.281	665.4
550.684	678
551.087	695.2
551.512	679.8
551.915	695.8
552.34	677.8
552.743	683.4
553.146	670.4
553.571	680.6
553.975	702.6
554.399	660.4
554.803	742.6
555.207	682.6
555.632	676.6
556.036	686.4
556.461	670.2
556.865	683
557.268	675.8
557.694	677.2
558.098	690.4
558.502	694.2
558.927	683.8
559.332	670
559.736	675.2
560.162	690.4
560.566	677
560.992	678.2
561.396	680.2
561.801	682.6
562.227	682
562.631	676.2
563.036	671.4
563.462	685.2
563.867	670.4
564.272	663.2
564.698	676.6
565.103	665.2
565.508	691
565.935	672.2
566.34	666.6
566.745	686.2
567.172	665.4
567.577	696
567.982	684.8
568.409	678.4
568.815	667
569.22	677
569.626	677.8
570.053	659.2
570.459	681.6
570.865	685.8
571.292	685.6
571.698	674.6
572.104	649.2
572.531	672.4
572.937	685.2
573.343	673.6
573.75	675
574.177	676.6
574.583	683.2
574.99	669
575.396	677
575.824	672.4
576.231	677.2
576.637	664.8
577.065	706.8
577.472	663.2
577.879	672.8
578.286	685
578.714	662.8
579.121	672.4
579.528	684
579.935	676.2
580.364	666.6
580.771	657.2
581.178	651
581.585	676.2
582.014	666.4
582.421	659.4
582.829	665.8
583.236	677.2
583.644	657.6
584.073	670.4
584.481	664.6
584.889	660.8
585.296	668.8
585.726	667
586.134	661
586.542	673.2
586.95	684.8
587.358	653.6
587.787	672.4
588.196	657.8
588.604	664.2
589.012	668.6
589.421	656.6
589.851	663.8
590.259	665
590.668	669.2
591.076	714.4
591.485	660.8
591.894	674.4
592.324	679.8
592.733	678.4
593.142	657
593.551	665.4
593.96	711.2
594.369	657.6
594.8	666
595.209	665.8
595.618	648.2
596.028	662.2
596.437	664.6
596.847	667.4
597.256	670.8
597.687	661
598.097	670
598.507	650.8
598.917	667.8
599.327	672.8
599.736	668.4
600.146	682.2
600.556	672.2
600.988	682
601.398	665.4
601.808	676.8
602.219	653.6
602.629	668.6
603.039	663.4
603.45	684.6
603.86	671.8
604.271	683.4
604.703	661.6
605.114	670
605.525	662.8
605.935	673.6
606.346	694.6
606.757	682
607.168	661.2
607.579	662.2
607.99	676.6
608.402	663.6
608.813	678.6
609.224	673
609.636	656.2
610.047	652.2
610.48	666.4
610.892	675.8
611.303	682.6
611.715	672.2
612.127	656.2
612.539	665
612.95	671.6
613.362	658.8
613.774	658.8
614.186	662.8
614.599	665.4
615.011	682.6
615.423	659.2
615.835	660.6
616.248	659.8
616.66	665.2
617.073	657.8
617.485	664.8
617.898	674.2
618.311	672.2
618.723	660.8
619.136	703.2
619.549	680.4
619.962	687.2
620.375	659.6
620.788	669.4
621.201	664
621.614	673.8
622.028	667.8
622.441	666.8
622.854	686.2
623.268	659.6
623.681	661.4
624.095	666.8
624.509	679
624.922	678.2
625.336	659.6
625.728	665
626.142	674.8
626.556	686.4
626.97	670.4
627.384	662.2
627.799	668.4
628.213	680.8
628.627	664.8
629.041	664
629.456	661.8
629.87	672.4
630.285	676.2
630.699	677.4
631.093	661
631.507	678.4
631.922	664.4
632.337	679.4
632.752	649
633.167	671
633.582	662.6
633.997	668.2
634.412	665
634.806	670
635.221	655.4
635.637	678.4
636.052	659.8
636.468	660.4
636.883	683.8
637.299	678.2
637.715	649.6
638.109	657
638.525	653.8
638.941	681.6
639.357	672.6
639.773	678.6
640.189	667.8
640.584	665.4
641	668
641.416	647
641.832	660.2
642.249	656.4
642.665	660.8
643.06	674.8
643.477	674.4
643.894	643.4
644.31	659.8
644.727	669
645.123	662.2
645.54	653.4
645.957	665.8
646.374	680.8
646.77	668.4
647.187	703.6
647.604	666.8
648.021	647.8
648.439	660.8
648.835	665.2
649.252	666.4
649.67	662.2
650.088	671.4
650.484	660.4
650.902	670.4
651.32	672.4
651.738	663.2
652.134	676
652.552	684.2
652.971	673.6
653.389	669.2
653.786	680.6
654.204	687.6
654.622	660.2
655.019	667.8
655.438	663.6
655.857	657.6
656.275	672.6
656.673	655.2
657.091	749.6
657.51	652.4
657.908	673.4
658.327	681.2
658.746	657.6
659.144	657.6
659.563	675.8
659.982	660
660.38	657
660.8	670
661.219	674.2
661.617	670.8
662.037	668
662.457	670.8
662.855	649
663.275	704.8
663.695	662.2
664.094	670.6
664.514	670.6
664.934	660.2
665.333	679.4
665.753	664.2
666.152	649.2
666.572	651.6
666.993	675.4
667.392	664.6
667.812	654.8
668.212	659.4
668.632	675.4
669.053	661
669.453	669
669.874	661.6
670.273	661.2
670.694	657.2
671.116	667.4
671.515	676.2
671.937	666.8
672.337	665.6
672.758	653
673.158	669.6
673.58	656.8
673.98	665.4
674.402	675
674.824	661.4
675.224	663.2
675.646	663
676.047	657.8
676.469	663.6
676.869	673.2
677.292	667.6
677.693	651.4
678.115	659.2
678.516	667.8
678.939	664.8
679.34	666.2
679.762	675
680.164	660.6
680.586	657.2
680.988	665.6
681.411	685.8
681.812	656
682.236	654.4
682.637	641.6
683.061	651.4
683.462	664
683.864	664
684.288	661.2
684.69	644.2
685.114	670
685.516	670.2
685.94	642.4
686.342	667.4
686.766	654.2
687.168	657.4
687.571	677.2
687.995	662
688.398	646.2
688.822	654.2
689.225	679.6
689.628	684.8
690.052	660.8
690.456	673.8
690.88	657.8
691.284	651
691.687	662.8
692.112	653
692.515	649
692.919	667.6
693.344	665.2
693.747	650.4
694.173	647.4
694.577	680
694.98	654
695.406	658.6
695.81	665.6
696.214	669
696.64	667.4
697.044	677.6
697.448	675.6
697.874	659.2
698.279	661.2
698.684	651.6
699.11	659
699.514	663.6
699.919	657.4
700.324	655.2
700.75	663.6
701.156	664
701.561	679.8
701.987	672.6
702.393	677.8
702.798	673.6
703.203	666.6
703.63	656.4
704.036	663.4
704.442	661.4
704.847	654.2
705.274	661.8
705.68	664.2
706.086	667.8
706.492	649.6
706.92	658.8
707.326	671.4
707.732	657.2
708.139	651.2
708.545	648.6
708.973	658.2
709.38	659.8
709.786	649.6
710.193	680
710.6	659.6
711.028	658.8
711.435	662
711.842	660.6
712.249	658.4
712.656	654.8
713.064	671.2
713.492	656.2
713.9	655.8
714.307	667.8
714.715	663
715.123	661.6
715.53	666.8
715.938	669.2
716.367	659
716.775	659.6
717.184	653.2
717.592	654.8
718	677.6
718.408	692.4
718.816	706.6
719.225	671
719.633	662.4
720.042	650.8
720.472	650.4
720.881	682.8
721.29	673
721.699	655.8
722.108	660.8
722.517	667.6
722.926	653.8
723.335	679.4
723.744	664.6
724.154	660
724.563	655.8
724.973	658.4
725.382	661.6
725.792	652.4
726.202	648.2
726.612	683.6
727.022	655.6
727.432	659.6
779.813	655.6
780.223	706.4
780.634	654
781.044	657.4
781.454	655
781.865	674.4
782.276	652.6
782.686	673.4
783.097	652.6
783.508	655.8
783.919	663.6
784.33	670.4
784.741	672
785.152	659.2
785.563	645
785.974	662.8
786.386	669.8
786.776	653.8
787.188	659.8
787.599	648.4
788.011	673.2
788.423	667.4
788.835	658
789.247	651.2
789.659	662.2
790.071	655.8
790.483	705.4
790.874	654.4
791.286	672
791.699	659.8
792.111	661
792.524	665.4
792.937	654.8
793.349	656.2
793.741	653.2
794.154	661
794.567	676.4
794.98	659.2
795.393	648.6
795.785	680
796.198	659
796.612	657.8
797.026	660.2
797.439	638
797.831	654.6
798.245	658.8
798.659	662.2
799.073	654.4
799.487	656.4
799.88	656
800.294	655.6
800.708	662.6
801.123	658.2
801.516	677.8
801.93	658.4
802.345	639.4
802.76	661.4
803.153	679.4
803.568	670.4
803.983	668.2
804.377	664
804.792	643.6
805.207	645.6
805.601	652.8
806.016	694.8
806.432	654.8
806.826	704.8
807.242	669.8
807.658	658.8
808.052	653.2
808.468	653.4
808.884	664
809.279	661.4
809.695	676
810.111	673.8
810.506	667.2
810.922	676.2
811.339	647.2
811.734	668.2
812.151	652.6
812.546	652.4
812.963	657.8
813.38	670.8
813.776	660.4
814.193	678
814.589	654.4
815.006	652.4
815.402	644.2
815.82	655.8
816.237	654.8
816.633	661.2
817.051	652.6
817.448	666.2
817.866	647.8
818.262	683.8
818.68	663.6
819.077	647
819.495	654.6
819.892	699.2
820.311	648.8
820.708	659.2
821.127	653.4
821.524	669.4
821.943	662.6
822.34	674.8
822.759	661.2
823.157	651
823.576	678.2
823.974	667
824.393	788.4
824.791	659.4
825.189	650
825.609	652.6
826.007	662
826.427	637.2
826.826	659
827.246	664.4
827.644	637.2
828.043	669.6
828.463	654
828.862	663
829.261	655.8
829.682	649.6
830.081	667.6
830.502	662
830.901	670.6
831.301	658.8
831.722	645
832.121	653.6
832.521	657
832.943	644.6
833.342	658.4
833.742	639.2
834.164	649.6
834.564	638.8
834.965	645.8
835.386	664.2
835.787	660.2
836.188	656.6
836.588	656.6
837.01	657.2
837.411	644.8
837.812	667.6
838.213	659.8
838.636	652.6
839.037	731.6
839.438	659.8
839.84	655.6
840.263	660.2
840.664	656.2
841.066	653.6
841.468	654.6
841.891	649.2
842.293	670.4
842.695	655.6
843.098	664.2
843.5	649.4
843.902	658
844.326	658.4
844.729	657.6
845.131	673
845.534	659.4
845.937	667
846.34	664.2
846.764	652
847.167	659
847.571	654.4
847.974	657.2
848.377	655
848.781	712
849.184	680.6
849.588	650.4
849.992	655.6
850.396	661.6
850.821	671.4
851.225	664.6
851.63	653
852.034	672
852.438	653.8
852.843	800
853.247	652.4
853.652	654
854.057	679.2
854.462	659.4
854.867	662.2
855.272	691
855.677	659
