#lambda/nm	C1
208.295	547.4
208.67	492.4
209.045	456.4
209.419	463.4
209.794	695.6
210.169	666.4
210.544	811
210.919	703.8
211.295	680.4
211.67	685.6
212.045	691.4
212.421	682
212.796	739.2
213.172	680.2
213.547	681.6
213.923	683
214.299	686.4
214.675	691.2
215.051	699.2
215.427	701.8
215.803	709.2
216.179	701.8
216.555	695
216.932	702.6
217.308	685
217.684	691
218.061	695.6
218.438	692.4
218.814	690
219.191	700.4
219.568	683.8
219.945	688
220.322	690.8
220.699	699.2
221.076	689.2
221.453	692.4
221.83	683.2
222.208	688.2
222.585	685.6
222.962	697.2
223.34	692.8
223.717	693.4
224.095	689.6
224.473	688.2
224.851	681
225.229	671.8
225.607	714
225.985	680.2
226.363	694.4
226.741	683
227.119	684.8
227.497	703.6
227.876	672
228.254	694.4
228.633	683.8
229.011	695.4
229.39	695
229.769	692.6
230.148	698.8
230.527	709.6
230.905	687.4
231.284	690.8
231.664	681.2
232.043	701.4
232.422	696
232.801	681.4
233.181	702
233.56	690.8
233.94	697.2
234.319	681.2
234.699	688
235.079	743.4
235.458	733.6
235.838	709
236.218	682.6
236.598	673.8
236.978	687.2
237.358	676.8
237.738	686.4
238.119	702.4
238.499	676.2
238.88	697.6
239.26	709.2
239.641	672.8
240.021	689.4
240.402	691.4
240.783	682.6
241.163	693.4
241.544	695.4
241.925	688
242.306	702.8
242.687	679
243.069	690.8
243.45	695.8
243.831	670.6
244.212	689.6
244.594	733.6
244.975	693
245.357	701.4
245.739	685.6
246.12	694.4
246.502	708.2
246.884	689.8
247.266	686
247.648	696.2
248.03	715.6
248.412	690.2
248.794	698.4
249.176	679.4
249.559	700.4
249.941	683
250.323	681.8
250.706	681.8
251.089	691.4
251.471	691.2
251.854	701.4
252.237	692.6
252.62	706.4
253.002	694.6
253.385	694.2
253.769	703
254.152	684.6
254.535	689.2
254.918	679
255.301	693.2
255.685	686.6
256.068	683.8
256.452	716.8
256.835	707.6
257.219	702.6
257.603	708.4
257.986	689.8
258.37	692.2
258.754	677.2
259.138	704
259.522	704.6
259.906	692.6
260.29	697.8
260.675	690.6
261.059	695
261.443	683.8
261.828	703.6
262.212	690.6
262.597	686
262.981	689.4
263.366	706.2
263.751	692.4
264.136	697.4
264.521	681.2
264.906	681.6
265.291	699.8
265.676	688.2
266.061	691
266.446	705
266.831	685.6
267.217	707.8
267.602	695.8
267.987	691
268.373	693.2
268.759	699.2
269.144	709.4
269.53	689.6
269.916	691.4
270.302	690
270.688	700.2
271.074	693.2
271.46	708.8
271.846	737.8
272.232	693.8
272.618	688.6
273.004	691.2
273.391	709.6
273.777	704.2
274.164	687.4
274.55	702.8
274.937	684.8
275.324	689
275.71	700
276.097	698
276.484	677.4
276.871	700.6
277.258	690.8
277.645	678.4
278.032	691.6
278.419	680.4
278.807	691.4
279.194	684.8
279.581	691.8
279.969	705.2
280.356	694.2
280.744	693
281.131	726.4
281.519	707.8
281.907	683.6
282.295	693.2
282.682	706.4
283.07	702.6
283.458	700
283.846	702.2
284.235	708.8
284.623	704
285.011	670.4
285.399	698.2
285.788	696.2
286.176	689
286.565	701.8
286.953	681.2
287.342	678.6
287.731	694.6
288.119	678.6
288.508	681.4
288.897	691
289.286	675
289.675	695.8
290.064	699.6
290.453	688.8
290.821	694.8
291.21	709.2
291.599	688.6
291.989	686
292.378	697.2
292.768	713.4
293.157	695.8
293.547	701.8
293.936	693.2
294.326	685.8
294.716	696.4
295.106	687.2
295.496	692.4
295.886	702.4
296.276	689.4
296.666	685.4
297.056	687.4
297.446	684.4
297.836	718.4
298.227	690.8
298.617	683.4
299.008	713.6
299.398	685.4
299.789	696.8
300.179	703.2
300.57	703.8
300.961	691
301.352	690.6
301.742	708.4
302.133	691.6
302.524	699
302.915	692.6
303.307	689
303.698	706.2
304.089	700.2
304.48	697.4
304.872	712.8
305.263	694.2
305.655	689.8
306.046	695
306.438	698.8
306.829	686
307.221	708.2
307.613	692.8
308.005	710.8
308.397	707.4
308.789	723
309.181	724.6
309.573	704.6
309.965	704.6
310.357	688.8
310.749	710.8
311.142	682.4
311.534	680.8
311.926	688.4
312.319	697.2
312.711	685.4
313.104	710.2
313.497	688.2
313.889	733.6
314.282	709.6
314.675	724.6
315.068	692.6
315.461	706.2
315.854	729.6
316.247	705.8
316.64	690.2
317.033	699.4
317.405	713.4
317.798	685.8
318.192	707.6
318.585	688.2
318.979	703.6
319.372	691.2
319.766	692.6
320.16	697.4
320.553	710.4
320.947	718.6
321.341	687.6
321.735	695.2
322.129	672.2
322.523	730.4
322.917	679.2
323.311	706.2
323.705	697.2
324.099	700.2
324.494	707.2
324.888	704.6
325.282	693.8
325.677	711.4
326.071	709
326.466	717
326.861	702.2
327.255	700
327.65	709.6
328.045	711.2
328.44	703.8
328.835	695
329.23	685
329.625	732.6
330.02	685.4
330.415	721.2
330.81	690.8
331.206	690
331.601	694.6
331.996	697.4
332.37	713.8
332.766	680.4
333.161	719.2
333.557	683.6
333.953	696.4
334.348	1058
334.744	694
335.14	688.8
335.536	686.8
335.932	703.8
336.328	698
336.724	708.8
337.12	697.2
337.516	700.6
337.913	693.2
338.309	709.8
338.705	692.8
339.102	708.8
339.498	695.2
339.895	709
340.291	695
340.688	706
341.085	686.6
341.481	693.6
341.878	688.4
342.275	724.4
342.672	683.6
343.069	695.8
343.466	681.6
343.842	700.8
344.239	688.2
344.636	688.8
345.033	682.4
345.431	686.8
345.828	696.2
346.225	688.2
346.623	731.6
347.02	689.4
347.418	701.8
347.816	701.8
348.213	688
348.611	688.8
349.009	689.4
349.407	704
349.805	687
350.203	673.4
350.601	705.8
350.999	693.4
351.397	749.6
351.795	693.8
352.193	695.4
352.57	704
352.969	708
353.367	686.8
353.766	682.8
354.164	684
354.563	706.8
354.961	688.2
355.36	685
355.759	688.4
356.158	685.8
356.557	673.8
356.956	682.2
357.355	677.2
357.754	689.8
358.153	705
358.552	727.8
358.951	687.6
359.35	704.8
359.75	690.8
360.149	675
360.527	676.6
360.926	681.8
361.326	690.8
361.726	692.2
362.125	683.2
362.525	695.6
362.925	689.8
363.325	689
363.724	691.2
364.124	682.2
364.524	674.2
364.924	675.8
365.324	704.4
365.725	676.8
366.125	696.8
366.525	691.2
366.904	680.6
367.304	672.6
367.705	706.8
368.105	704
368.506	692.8
368.906	686.6
369.307	682.8
369.708	700
370.108	673.2
370.509	700.6
370.91	671.8
371.311	685.2
371.712	694
372.113	689.4
372.514	672.6
372.894	681.6
373.295	681.6
373.696	700.6
374.097	693.2
374.499	715.6
374.9	685.2
375.301	678.2
375.703	692.8
376.105	672.6
376.506	688.6
376.908	698.4
377.309	685.6
377.711	683
378.113	685.6
378.493	685.4
378.895	679.2
379.297	692.8
379.699	666.2
380.102	680.4
380.504	685
380.906	677
381.308	710.4
381.71	681.8
382.113	705.2
382.515	680.4
382.918	689
383.299	687
383.701	691.4
384.104	687.8
384.507	667.4
384.909	686.8
385.312	666.6
385.715	677
386.118	679.8
386.521	672.2
386.924	702.6
387.327	684
387.709	672.4
388.112	674
388.515	689.6
388.918	686.8
389.322	683.2
389.725	683.8
390.129	712.2
390.532	693.8
390.936	688
391.339	680
391.743	693.6
392.125	678.2
392.529	695.4
392.933	699.8
393.337	685.8
393.74	688
394.144	690.2
394.548	676.4
394.953	681.8
395.357	695.4
395.761	675.2
396.144	676.2
396.548	676.2
396.952	671.8
397.357	683
397.761	676.6
398.166	683.2
398.57	670.4
398.975	672.8
399.379	690.8
399.763	740.2
400.168	684.2
400.572	685.2
400.977	681.2
401.382	712.6
401.787	685.6
402.192	704.8
402.597	711.6
403.002	668.6
403.386	699.8
403.791	700.4
404.197	678.2
404.602	685.8
405.007	688.6
405.413	685.2
405.818	688
406.224	681.4
406.608	683
407.014	681
407.42	696.4
407.825	674.6
408.231	702.4
408.637	694.4
409.043	713.8
409.449	677.2
409.834	675.2
410.24	689.2
410.646	692.8
411.052	696.4
411.458	684.2
411.865	697
412.271	696.6
412.677	684.4
413.062	684.8
413.469	670.8
413.875	708.4
414.282	706.4
414.689	692
415.095	687.8
415.502	680.6
415.888	688
416.294	671.2
416.701	730.4
417.108	676
417.515	699.6
417.923	681.4
418.33	711.2
418.715	689
419.123	690.8
419.53	678.6
419.937	689
420.345	704.6
420.752	685
421.16	702.2
421.546	696.4
421.953	691.2
422.361	681.4
422.769	691.2
423.177	681
423.585	723
423.992	719
424.379	702.4
424.787	701
425.195	714.8
425.603	686
426.011	696
426.419	704
426.806	691.4
427.214	688.8
427.623	696.6
428.031	705.4
428.44	693
428.848	709.2
429.235	701.6
429.644	688.6
430.053	687.2
430.461	719.8
430.87	716.6
431.279	707.4
431.666	681.2
432.075	689.8
432.484	693.2
432.893	692
433.302	716
433.711	750.2
434.099	690.8
434.508	678
434.918	674.6
435.327	700.6
435.737	691.8
436.125	692.4
436.534	697.8
436.944	692.4
437.353	694
437.763	713
438.173	675.4
438.561	696.4
438.971	671.2
439.381	690.2
439.791	697.8
440.201	671.8
440.589	688.8
440.999	693.6
441.409	690.2
441.819	673.4
442.23	699.4
442.619	695.4
443.029	700.2
443.439	694.4
443.85	710.4
444.26	707.4
444.649	701.4
445.06	699.6
445.471	683.2
445.881	693.8
446.292	711
446.682	716.8
447.092	685.4
447.503	754.8
447.914	697.2
448.325	698.8
448.715	699.2
449.126	686.8
449.537	704
449.948	697.4
450.338	691
450.75	698.8
451.161	700.2
451.572	698.8
451.984	688.6
452.374	670
452.786	690.6
453.197	697.8
453.609	699.4
453.999	677
454.411	685.4
454.823	712.2
455.235	693.6
455.647	695.8
456.037	699.2
456.449	679
456.862	703.4
457.274	696.6
457.665	690.6
458.077	704.2
458.489	735.2
458.902	693.6
459.293	708.8
459.705	705.4
460.118	690.6
460.53	695.4
460.921	702
461.334	705.6
461.747	696.2
462.16	706
462.551	708.4
462.964	709.4
463.377	690.2
463.79	704.2
464.182	710.8
464.595	693.4
465.008	705.4
465.421	702.6
465.813	693.8
466.226	713.8
466.64	697.8
467.053	763.8
467.445	723.4
467.859	723.2
468.272	705.4
468.686	711.6
469.078	705.2
469.492	688
469.906	705.8
470.298	706.8
470.712	699
471.126	763
471.54	677.4
471.933	693
472.347	703.2
472.761	691.4
473.175	690.6
473.568	694.4
473.982	688.6
474.397	700.6
474.79	697.2
475.204	708.4
475.619	713.2
476.033	701.2
476.426	707
476.841	699
477.256	729.8
477.649	698.4
478.064	697.2
478.479	694.4
478.872	689.8
479.287	676.8
479.702	696.6
480.118	699.8
480.511	697.6
480.927	697.6
481.342	698.4
481.736	707.6
482.151	680.8
482.566	710.6
482.96	703.4
483.376	713.6
483.792	690.4
484.186	700.6
484.602	705.4
485.017	702.2
485.412	694.2
485.827	712
486.243	697.8
486.638	734.4
487.054	704
487.47	716.2
487.865	701.2
488.281	691.4
488.697	686.4
489.092	693.2
489.508	687.8
489.925	704.2
490.32	684.4
490.736	706.4
491.153	702.6
491.548	697.4
491.964	704.8
492.381	674
492.776	709
493.193	700
493.61	700.6
494.006	697.2
494.422	703.4
494.84	686.6
495.235	716.4
495.652	701.6
496.069	700
496.465	683.6
496.883	691.2
497.3	722.2
497.696	693
498.113	703
498.509	680.8
498.927	683
499.344	683
499.741	679
500.158	704.4
500.576	697
500.973	684
501.39	681
501.787	682.6
502.205	699.8
502.623	687.8
503.02	676.2
503.438	674.6
503.856	691.8
504.253	692.4
504.671	693.2
505.068	679.4
505.486	692.2
505.905	716.6
506.302	688.6
506.72	702.8
507.118	692.6
507.536	695.8
507.955	691.8
508.352	688.2
508.771	695
509.169	697.8
509.587	676.2
510.006	694.4
510.404	682
510.823	676.6
511.221	691.4
511.64	686.4
512.038	702
512.457	682.2
512.877	691.8
513.275	681
513.694	682.4
514.092	686.4
514.512	691.8
514.91	690.4
515.33	686.2
515.749	679.8
516.148	681.2
516.568	689.8
516.966	685.8
517.386	676.6
517.785	676.4
518.205	676.4
518.603	678
519.024	677.6
519.444	682
519.843	686.8
520.263	693.2
520.662	699.4
521.082	688.2
521.481	679.6
521.902	684.6
522.301	682.2
522.722	686.2
523.121	689
523.542	690.2
523.963	680.2
524.362	682
524.783	688.8
525.183	684.4
525.604	695.8
526.003	678.2
526.425	671.2
526.824	688.4
527.246	693
527.646	694.8
528.067	687.2
528.467	688.8
528.888	686.6
529.289	689.4
529.71	684.4
530.11	681.2
530.532	682.8
530.932	677.2
531.354	665.4
531.755	722.8
532.176	693.2
532.577	678.8
532.999	676.8
533.4	681.8
533.822	695
534.223	687.6
534.645	669.8
535.046	674
535.468	688.6
535.869	704.2
536.292	676.4
536.693	719.2
537.115	679.4
537.516	668.4
537.939	686.2
538.34	696.6
538.742	687.8
539.165	688.4
539.566	680
539.989	676.6
540.391	670.4
540.814	673.8
541.216	677
541.639	676.4
542.041	686
542.464	680
542.866	678.4
543.268	661
543.691	683.8
544.093	686.2
544.517	704.6
544.919	669.8
545.343	705.2
545.745	668.6
546.147	682.8
546.571	681.4
546.974	665.8
547.398	674
547.8	692.2
548.224	675.6
548.627	669.2
549.03	683
549.454	665.6
549.857	664
550.281	672.8
550.684	664.4
551.087	697.4
551.512	665.4
551.915	683.4
552.34	682.4
552.743	674.8
553.146	681.8
553.571	683.4
553.975	702.8
554.399	675.4
554.803	735.4
555.207	671.2
555.632	664.6
556.036	673.2
556.461	673.4
556.865	681
557.268	666.4
557.694	657
558.098	687.8
558.502	683.6
558.927	667.8
559.332	678.6
559.736	675.2
560.162	676.2
560.566	677.8
560.992	685.6
561.396	676.4
561.801	670.2
562.227	691
562.631	679.2
563.036	672.4
563.462	685.2
563.867	675.6
564.272	659.6
564.698	678
565.103	669.8
565.508	700.2
565.935	677.8
566.34	668.4
566.745	689.4
567.172	664.4
567.577	691.2
567.982	685.8
568.409	684.8
568.815	657.6
569.22	668
569.626	689.4
570.053	662.6
570.459	677.2
570.865	682.6
571.292	681.6
571.698	685.8
572.104	658.4
572.531	671
572.937	689
573.343	671
573.75	671
574.177	670.4
574.583	675.2
574.99	669.8
575.396	687.8
575.824	674.6
576.231	681.6
576.637	669.4
577.065	702.4
577.472	675
577.879	675
578.286	686.6
578.714	668.6
579.121	672.2
579.528	670.4
579.935	689.6
580.364	678
580.771	652.6
581.178	665.4
581.585	672
582.014	679.6
582.421	672.8
582.829	662.8
583.236	677.8
583.644	673
584.073	675.6
584.481	671.8
584.889	664.4
585.296	678.6
585.726	669.4
586.134	666.8
586.542	656.2
586.95	688
587.358	657.8
587.787	666.4
588.196	656.8
588.604	664.4
589.012	672
589.421	657.6
589.851	659.8
590.259	680
590.668	663.4
591.076	712
591.485	663
591.894	675
592.324	685.6
592.733	682.8
593.142	657.8
593.551	663.2
593.96	695.6
594.369	654.2
594.8	662.2
595.209	670
595.618	653
596.028	667.8
596.437	657.2
596.847	674
597.256	674.2
597.687	671.4
598.097	664.6
598.507	666.6
598.917	674.6
599.327	678.8
599.736	675.6
600.146	670.8
600.556	675.8
600.988	688.6
601.398	668
601.808	684
602.219	661
602.629	674.4
603.039	671.4
603.45	698.2
603.86	666
604.271	684
604.703	671
605.114	673.8
605.525	665.8
605.935	675.4
606.346	686
606.757	676
607.168	670
607.579	673
607.99	689.6
608.402	673.4
608.813	673
609.224	663.6
609.636	654.6
610.047	656.4
610.48	669.8
610.892	680.8
611.303	680.8
611.715	666.6
612.127	662.6
612.539	673
612.95	664.8
613.362	648.6
613.774	670
614.186	668.6
614.599	663.8
615.011	677.2
615.423	666
615.835	663.2
616.248	654.8
616.66	677.6
617.073	654.8
617.485	657.8
617.898	679.2
618.311	676.2
618.723	669.4
619.136	689.6
619.549	679.6
619.962	693.4
620.375	662.6
620.788	671
621.201	653.4
621.614	670.2
622.028	662.8
622.441	667
622.854	673.4
623.268	657.8
623.681	672.6
624.095	664.4
624.509	672.2
624.922	672.2
625.336	657
625.728	671.8
626.142	676.8
626.556	695
626.97	671.6
627.384	661.4
627.799	671.4
628.213	680.4
628.627	663.2
629.041	656.8
629.456	664.6
629.87	661.2
630.285	671.6
630.699	672
631.093	676
631.507	671.8
631.922	673.6
632.337	680
632.752	660.6
633.167	677.6
633.582	656.8
633.997	672
634.412	666.6
634.806	663
635.221	649.2
635.637	674
636.052	664.4
636.468	674
636.883	690.6
637.299	659.8
637.715	659.6
638.109	672.2
638.525	658.6
638.941	685.8
639.357	672.8
639.773	682.8
640.189	664.6
640.584	677
641	667.8
641.416	651.8
641.832	670.6
642.249	660.4
642.665	658.2
643.06	672
643.477	674.8
643.894	647.2
644.31	664
644.727	663
645.123	674.6
645.54	656.4
645.957	674.6
646.374	685.6
646.77	668
647.187	701.8
647.604	664.4
648.021	649.6
648.439	660.8
648.835	667.8
649.252	656.4
649.67	665.8
650.088	675
650.484	668
650.902	673.8
651.32	672.4
651.738	671.4
652.134	669.2
652.552	685
652.971	679
653.389	663.4
653.786	680.8
654.204	692.4
654.622	662.8
655.019	673
655.438	670.8
655.857	661.2
656.275	676.2
656.673	659.2
657.091	756.6
657.51	660.2
657.908	680.4
658.327	683.2
658.746	648.2
659.144	654.8
659.563	680.2
659.982	671.8
660.38	661
660.8	670.8
661.219	673.2
661.617	668.6
662.037	664.2
662.457	686.8
662.855	653.4
663.275	693.8
663.695	671.6
664.094	667.6
664.514	662.6
664.934	665.2
665.333	679.8
665.753	657.4
666.152	657.4
666.572	655
666.993	677.4
667.392	665.4
667.812	664.4
668.212	664.8
668.632	683.2
669.053	662.8
669.453	675.8
669.874	668.6
670.273	663.2
670.694	659.4
671.116	679.8
671.515	671.8
671.937	665
672.337	666.2
672.758	662.2
673.158	683.2
673.58	655.6
673.98	676.6
674.402	679
674.824	662.2
675.224	659.6
675.646	662.4
676.047	653.2
676.469	666.2
676.869	677.2
677.292	677.6
677.693	665.4
678.115	658.6
678.516	674.6
678.939	667.2
679.34	651
679.762	671.2
680.164	672
680.586	664.6
680.988	668.2
681.411	702
681.812	657.8
682.236	662.2
682.637	652.2
683.061	657
683.462	670.2
683.864	663.8
684.288	659.2
684.69	651.2
685.114	674.6
685.516	684.4
685.94	665.2
686.342	680.4
686.766	655.8
687.168	662
687.571	683.8
687.995	665.6
688.398	647.4
688.822	669.6
689.225	683.8
689.628	686.6
690.052	661.6
690.456	684.8
690.88	659.4
691.284	646.4
691.687	672.6
692.112	657.6
692.515	656.8
692.919	666.2
693.344	680.2
693.747	661.2
694.173	660.6
694.577	679.8
694.98	653.6
695.406	660.2
695.81	664.8
696.214	662.4
696.64	670
697.044	679.8
697.448	673
697.874	657.4
698.279	672.4
698.684	653.6
699.11	659.4
699.514	667.8
699.919	670.4
700.324	657.4
700.75	668.2
701.156	662
701.561	679
701.987	672.8
702.393	675.2
702.798	687
703.203	667.6
703.63	666.6
704.036	657.2
704.442	670.6
704.847	653.2
705.274	662.6
705.68	670.8
706.086	671
706.492	645.8
706.92	664
707.326	656.8
707.732	667.6
708.139	657.2
708.545	648.4
708.973	659
709.38	660.8
709.786	648.8
710.193	679.2
710.6	664.8
711.028	655.6
711.435	663.6
711.842	658.6
712.249	661.4
712.656	657.8
713.064	667.4
713.492	651.4
713.9	662.6
714.307	666.2
714.715	665.8
715.123	664.6
715.53	663.8
715.938	680.2
716.367	669.6
716.775	662.2
717.184	657.2
717.592	661.2
718	682.4
718.408	699.2
718.816	713.6
719.225	669.6
719.633	672.6
720.042	656.4
720.472	662.6
720.881	692.2
721.29	669.8
721.699	655.2
722.108	670.4
722.517	668.2
722.926	651.6
723.335	670.8
723.744	662.2
724.154	663.2
724.563	653.8
724.973	662.8
725.382	654.2
725.792	651.6
726.202	648.2
726.612	684
727.022	665.4
727.432	659
779.813	658.4
780.223	697
780.634	652
781.044	647.4
781.454	657.4
781.865	671.8
782.276	651
782.686	671.8
783.097	665.8
783.508	657
783.919	661.6
784.33	683.6
784.741	676
785.152	645
785.563	645.6
785.974	653
786.386	681.4
786.776	655.2
787.188	668.2
787.599	653.2
788.011	671.4
788.423	667.2
788.835	662.8
789.247	658.4
789.659	662.2
790.071	665.2
790.483	705.2
790.874	658.2
791.286	672.8
791.699	665.6
792.111	664
792.524	666.2
792.937	661.4
793.349	652.2
793.741	666.2
794.154	653.6
794.567	692.4
794.98	661.8
795.393	653.4
795.785	672.4
796.198	656.6
796.612	661.6
797.026	659
797.439	641.2
797.831	664.8
798.245	654.2
798.659	653
799.073	649.4
799.487	655.4
799.88	669.6
800.294	652.8
800.708	666.8
801.123	667.8
801.516	683.2
801.93	648
802.345	655.2
802.76	658.6
803.153	683
803.568	673.6
803.983	670.6
804.377	655.6
804.792	652.2
805.207	644.2
805.601	667.4
806.016	696
806.432	653.6
806.826	697.8
807.242	678.8
807.658	667.4
808.052	660
808.468	663
808.884	659.6
809.279	669.2
809.695	685.2
810.111	692
810.506	666.8
810.922	685.2
811.339	657
811.734	672.4
812.151	662.4
812.546	652.8
812.963	652.8
813.38	656
813.776	662
814.193	681
814.589	656.2
815.006	657
815.402	651.6
815.82	653.4
816.237	655.8
816.633	662.2
817.051	655.8
817.448	658.6
817.866	654.2
818.262	677.6
818.68	653.8
819.077	658.6
819.495	656.6
819.892	700.8
820.311	649.2
820.708	652.2
821.127	652.6
821.524	671.2
821.943	657
822.34	682.8
822.759	665.4
823.157	656.6
823.576	675.8
823.974	666.8
824.393	787.2
824.791	659.8
825.189	654
825.609	648
826.007	661.8
826.427	648.8
826.826	657.4
827.246	665.4
827.644	652
828.043	667
828.463	655.2
828.862	685.2
829.261	669.6
829.682	654
830.081	670.2
830.502	654.6
830.901	659
831.301	659.4
831.722	644
832.121	659.6
832.521	652.4
832.943	660.2
833.342	656.2
833.742	654.2
834.164	656
834.564	653
834.965	652.4
835.386	653.4
835.787	648.6
836.188	656.6
836.588	659.4
837.01	656.6
837.411	647.8
837.812	668.2
838.213	666
838.636	646.6
839.037	731.4
839.438	663.4
839.84	666.2
840.263	661
840.664	660.6
841.066	660.8
841.468	668
841.891	650.6
842.293	666.2
842.695	660
843.098	672.2
843.5	654.2
843.902	660.4
844.326	664.6
844.729	666.6
845.131	665.8
845.534	661.2
845.937	674.6
846.34	677.2
846.764	661
847.167	667
847.571	647.6
847.974	643
848.377	658.2
848.781	717.6
849.184	671.2
849.588	651.8
849.992	654
850.396	654.8
850.821	678.8
851.225	666.4
851.63	663.2
852.034	672.8
852.438	656.4
852.843	704.4
853.247	650.4
853.652	650
854.057	677.2
854.462	662.8
854.867	664.8
855.272	693.4
