#lambda/nm	C1
208.295	556.2
208.67	503.2
209.045	468.6
209.419	459.2
209.794	682.2
210.169	665.6
210.544	808.4
210.919	691.6
211.295	673.6
211.67	688.4
212.045	686
212.421	681
212.796	724.6
213.172	686
213.547	670.4
213.923	685
214.299	687.2
214.675	692.4
215.051	690
215.427	696.6
215.803	699.2
216.179	690.2
216.555	682.8
216.932	690.4
217.308	680.8
217.684	684
218.061	690.8
218.438	685.8
218.814	678.6
219.191	686.2
219.568	672
219.945	671.8
220.322	690.8
220.699	690.8
221.076	689.2
221.453	689.4
221.83	677.6
222.208	673.4
222.585	683.4
222.962	694.6
223.34	690.6
223.717	683.4
224.095	684.2
224.473	681.4
224.851	672
225.229	682
225.607	703.8
225.985	677.8
226.363	678.6
226.741	688.4
227.119	676.2
227.497	701.4
227.876	686.6
228.254	682.6
228.633	691.2
229.011	691.8
229.39	691.2
229.769	692.2
230.148	693.4
230.527	707
230.905	696
231.284	695.2
231.664	680.6
232.043	705
232.422	699.8
232.801	685.2
233.181	685.2
233.56	688.6
233.94	689
234.319	669
234.699	682.4
235.079	749.4
235.458	736
235.838	707.6
236.218	682.6
236.598	673.2
236.978	682.6
237.358	681
237.738	690.2
238.119	703.6
238.499	685.2
238.88	686.8
239.26	708.8
239.641	672.8
240.021	687.8
240.402	692.2
240.783	679.4
241.163	683.8
241.544	686.6
241.925	689
242.306	705.4
242.687	681
243.069	676.2
243.45	691.6
243.831	682
244.212	682.6
244.594	722.4
244.975	700.2
245.357	692.4
245.739	679.8
246.12	686.8
246.502	702.2
246.884	690.2
247.266	684
247.648	695.4
248.03	705.4
248.412	693.4
248.794	691.6
249.176	681.8
249.559	689.4
249.941	681
250.323	676.8
250.706	673.8
251.089	682.4
251.471	689.2
251.854	679.8
252.237	684.2
252.62	688.4
253.002	686.6
253.385	682.8
253.769	702.2
254.152	680.4
254.535	687
254.918	674
255.301	689.2
255.685	676.4
256.068	673.4
256.452	713.8
256.835	701.8
257.219	697
257.603	699.8
257.986	679.2
258.37	691.6
258.754	673.6
259.138	693.6
259.522	696.8
259.906	684.2
260.29	689.6
260.675	681.4
261.059	695.8
261.443	663.2
261.828	687.8
262.212	694.4
262.597	676.8
262.981	680
263.366	698.4
263.751	690
264.136	683.8
264.521	680.2
264.906	681.4
265.291	693
265.676	679.8
266.061	695
266.446	708.2
266.831	695.2
267.217	702.4
267.602	693.8
267.987	695.2
268.373	676.8
268.759	708
269.144	692.2
269.53	693
269.916	684.6
270.302	684.4
270.688	692.8
271.074	684.2
271.46	698.8
271.846	728
272.232	689.8
272.618	678.2
273.004	690.2
273.391	704
273.777	705
274.164	701
274.55	703.4
274.937	691.6
275.324	682
275.71	698
276.097	691
276.484	679.8
276.871	702.2
277.258	690.8
277.645	676.2
278.032	692.8
278.419	685.8
278.807	695
279.194	687
279.581	685.8
279.969	700.8
280.356	697.8
280.744	691
281.131	715.2
281.519	703
281.907	680.4
282.295	680.2
282.682	704
283.07	691.2
283.458	703.8
283.846	692.8
284.235	700.6
284.623	699
285.011	677.6
285.399	689.2
285.788	695.8
286.176	676
286.565	705.6
286.953	689
287.342	680
287.731	682.8
288.119	685.2
288.508	691.6
288.897	688.6
289.286	681.8
289.675	691.6
290.064	703.8
290.453	686.8
290.821	684
291.21	712.8
291.599	682.2
291.989	692
292.378	703.2
292.768	708.6
293.157	696
293.547	702.8
293.936	690.6
294.326	682.4
294.716	692.6
295.106	689
295.496	699.6
295.886	699
296.276	689.8
296.666	677.8
297.056	682.6
297.446	689.2
297.836	696.6
298.227	687.4
298.617	690.6
299.008	706.4
299.398	685.2
299.789	681
300.179	693
300.57	702.6
300.961	690.8
301.352	691
301.742	695.4
302.133	689.2
302.524	689
302.915	690.4
303.307	679.8
303.698	689.8
304.089	690.6
304.48	697.8
304.872	694.2
305.263	689.8
305.655	687
306.046	690.6
306.438	696
306.829	682.2
307.221	704.2
307.613	693.8
308.005	697.4
308.397	697
308.789	719.6
309.181	720.6
309.573	711.8
309.965	703.4
310.357	696.4
310.749	707.4
311.142	682
311.534	688.2
311.926	699
312.319	691.8
312.711	678.2
313.104	703.4
313.497	689.2
313.889	735.4
314.282	708
314.675	720.4
315.068	692.2
315.461	703.8
315.854	722.2
316.247	707
316.64	685
317.033	689.2
317.405	696.6
317.798	691.4
318.192	696.8
318.585	682.6
318.979	696
319.372	670.6
319.766	686.2
320.16	698.6
320.553	707.4
320.947	717.8
321.341	692
321.735	692
322.129	673.2
322.523	710.2
322.917	683.4
323.311	703.8
323.705	680.2
324.099	693.4
324.494	704.4
324.888	704.2
325.282	686.4
325.677	702.6
326.071	698.6
326.466	702.6
326.861	692.8
327.255	708.6
327.65	700.6
328.045	712.6
328.44	691.2
328.835	694.6
329.23	678.8
329.625	714
330.02	684.6
330.415	716.6
330.81	702.2
331.206	691
331.601	688.2
331.996	698
332.37	718
332.766	680.8
333.161	713.4
333.557	696.4
333.953	694
334.348	1113.4
334.744	695.6
335.14	692.8
335.536	683
335.932	702
336.328	685.4
336.724	699.6
337.12	699.4
337.516	690.6
337.913	691.4
338.309	711.4
338.705	691.6
339.102	697.2
339.498	696.8
339.895	701.2
340.291	681.6
340.688	692.6
341.085	691
341.481	688.4
341.878	683
342.275	713.2
342.672	680.8
343.069	682.2
343.466	677.4
343.842	709.4
344.239	677.2
344.636	696.8
345.033	677
345.431	682.6
345.828	691
346.225	682.6
346.623	731.6
347.02	693.8
347.418	700.2
347.816	704.8
348.213	671.6
348.611	699.6
349.009	687.8
349.407	702
349.805	693.4
350.203	667.6
350.601	696.8
350.999	675.4
351.397	732
351.795	684.2
352.193	694
352.57	695.4
352.969	697.8
353.367	672.2
353.766	681.6
354.164	691.8
354.563	700.4
354.961	676.2
355.36	682.8
355.759	683.6
356.158	680
356.557	683.2
356.956	681.8
357.355	678.8
357.754	692.6
358.153	688.2
358.552	713.6
358.951	692.4
359.35	695.4
359.75	679.8
360.149	673
360.527	665.8
360.926	678
361.326	674
361.726	690.6
362.125	672.6
362.525	699.4
362.925	683
363.325	680.6
363.724	673.4
364.124	682.4
364.524	675.4
364.924	684
365.324	698.2
365.725	658.6
366.125	697.4
366.525	683.6
366.904	675.2
367.304	663.4
367.705	700.6
368.105	700.4
368.506	684.2
368.906	692
369.307	676.2
369.708	690.4
370.108	674.4
370.509	704.4
370.91	679
371.311	684.4
371.712	681
372.113	679.8
372.514	667.6
372.894	688
373.295	686.6
373.696	700.4
374.097	703.2
374.499	723.4
374.9	681
375.301	673.8
375.703	685.4
376.105	667.4
376.506	691.8
376.908	686
377.309	687
377.711	691.8
378.113	677
378.493	685.4
378.895	683.8
379.297	690.8
379.699	667.6
380.102	685.8
380.504	676.8
380.906	672.2
381.308	712
381.71	686.4
382.113	694.8
382.515	673.8
382.918	691.6
383.299	682.4
383.701	692.2
384.104	676.4
384.507	664.2
384.909	683.4
385.312	670.2
385.715	673.2
386.118	687.8
386.521	665.6
386.924	690.8
387.327	669.4
387.709	662.2
388.112	665
388.515	679.2
388.918	683.4
389.322	688
389.725	673
390.129	703.4
390.532	686.2
390.936	676.8
391.339	663.2
391.743	682.8
392.125	679
392.529	702.6
392.933	695.8
393.337	685.2
393.74	691.8
394.144	679.6
394.548	677.4
394.953	678.6
395.357	689
395.761	676.2
396.144	684
396.548	677
396.952	681.6
397.357	686.6
397.761	676.6
398.166	685
398.57	681.6
398.975	674
399.379	683.4
399.763	743
400.168	681.2
400.572	686.2
400.977	677.8
401.382	696.2
401.787	691.8
402.192	698
402.597	701.6
403.002	667
403.386	684.6
403.791	702.2
404.197	680.6
404.602	682.6
405.007	683
405.413	675.6
405.818	683
406.224	677
406.608	682.8
407.014	676.4
407.42	697.2
407.825	687.2
408.231	686.8
408.637	677.2
409.043	700
409.449	684
409.834	667.2
410.24	687.4
410.646	697.6
411.052	688.8
411.458	693.8
411.865	695.4
412.271	693.2
412.677	683.6
413.062	679.8
413.469	680.6
413.875	715.4
414.282	699.8
414.689	687
415.095	695.4
415.502	670.8
415.888	693.8
416.294	665.8
416.701	734.4
417.108	682.4
417.515	695.6
417.923	679.4
418.33	709.2
418.715	693.4
419.123	685.4
419.53	685.2
419.937	682.8
420.345	705.6
420.752	680
421.16	694.2
421.546	680.2
421.953	683
422.361	678
422.769	674
423.177	667.4
423.585	712.2
423.992	708.6
424.379	698.2
424.787	696
425.195	694.4
425.603	682.4
426.011	702
426.419	703.2
426.806	684.2
427.214	687.8
427.623	697
428.031	701.4
428.44	689.8
428.848	696.6
429.235	697.2
429.644	682.4
430.053	685
430.461	703
430.87	712
431.279	694.8
431.666	677.8
432.075	686.2
432.484	696.8
432.893	685.4
433.302	698
433.711	742.4
434.099	688.4
434.508	683
434.918	670.4
435.327	699.4
435.737	698.8
436.125	687.8
436.534	688.2
436.944	683
437.353	687
437.763	712.2
438.173	674.2
438.561	696.4
438.971	674.4
439.381	691
439.791	702.4
440.201	664.6
440.589	702.6
440.999	695.2
441.409	702.8
441.819	686
442.23	707.8
442.619	705.8
443.029	698.4
443.439	699.8
443.85	705.8
444.26	711.8
444.649	712.4
445.06	703
445.471	702.6
445.881	702.4
446.292	721.6
446.682	727.4
447.092	689.8
447.503	771.8
447.914	711.6
448.325	708.4
448.715	711.4
449.126	707
449.537	700.2
449.948	708.6
450.338	706.8
450.75	712.6
451.161	706
451.572	718
451.984	700
452.374	693.2
452.786	707.4
453.197	715.8
453.609	717.4
453.999	693.6
454.411	698.6
454.823	720.4
455.235	721.8
455.647	700
456.037	714.8
456.449	704.6
456.862	707.4
457.274	713.4
457.665	695.8
458.077	719.6
458.489	752.8
458.902	709.8
459.293	716.8
459.705	711.2
460.118	710.2
460.53	717.2
460.921	709.4
461.334	719
461.747	709.2
462.16	723.4
462.551	725.2
462.964	722.4
463.377	703
463.79	720.4
464.182	727.8
464.595	712.2
465.008	721
465.421	731.2
465.813	719.6
466.226	724.8
466.64	711.2
467.053	771.4
467.445	727.6
467.859	741.8
468.272	713.8
468.686	730.2
469.078	721.6
469.492	712.6
469.906	715.6
470.298	722.6
470.712	706.2
471.126	780.8
471.54	709.8
471.933	712
472.347	712.8
472.761	712
473.175	711
473.568	721.6
473.982	715.4
474.397	712.6
474.79	720.4
475.204	724
475.619	722.4
476.033	728.2
476.426	719.8
476.841	709.6
477.256	745.6
477.649	712.4
478.064	716.8
478.479	708.2
478.872	706.6
479.287	702.4
479.702	715.4
480.118	715.2
480.511	717.8
480.927	717.6
481.342	717.8
481.736	726.6
482.151	717.4
482.566	725
482.96	726.4
483.376	731.4
483.792	709.2
484.186	727.2
484.602	715.4
485.017	721.8
485.412	716.2
485.827	719.8
486.243	720
486.638	741.4
487.054	734.2
487.47	734.4
487.865	708.2
488.281	718
488.697	714.4
489.092	712
489.508	697.8
489.925	726.6
490.32	702.4
490.736	717.4
491.153	721.4
491.548	721.6
491.964	731
492.381	702.8
492.776	714.4
493.193	716.2
493.61	727.6
494.006	715.4
494.422	725.6
494.84	705.8
495.235	721.4
495.652	709
496.069	712.6
496.465	713.4
496.883	712.4
497.3	739.4
497.696	706
498.113	718
498.509	705
498.927	694.6
499.344	701.4
499.741	699.4
500.158	720.6
500.576	719.6
500.973	708
501.39	706.4
501.787	703.4
502.205	710
502.623	701.6
503.02	697
503.438	695
503.856	706.6
504.253	707.8
504.671	715.4
505.068	704.6
505.486	695.6
505.905	732.4
506.302	711.8
506.72	715.6
507.118	692.4
507.536	708.2
507.955	702.6
508.352	705.2
508.771	705
509.169	710.8
509.587	698.2
510.006	697.8
510.404	698.2
510.823	696.2
511.221	697.8
511.64	702
512.038	713
512.457	696.4
512.877	704
513.275	695.6
513.694	704.6
514.092	704
514.512	703.8
514.91	698.8
515.33	702.4
515.749	703.2
516.148	700
516.568	703.4
516.966	699.6
517.386	686
517.785	700.8
518.205	693
518.603	685
519.024	686
519.444	695.2
519.843	710.4
520.263	709.6
520.662	693.4
521.082	684.8
521.481	692.4
521.902	699.2
522.301	698.8
522.722	697.6
523.121	699
523.542	680
523.963	691.6
524.362	692.6
524.783	687.2
525.183	690.4
525.604	692.8
526.003	684.6
526.425	672.8
526.824	700.2
527.246	689.4
527.646	704.8
528.067	684.2
528.467	697
528.888	693.4
529.289	689.6
529.71	696
530.11	678
530.532	677
530.932	683.4
531.354	679.4
531.755	718.2
532.176	700.2
532.577	688
532.999	690.8
533.4	676
533.822	695.6
534.223	694.8
534.645	673.6
535.046	686.4
535.468	683
535.869	693.8
536.292	679
536.693	726.6
537.115	685.8
537.516	677.4
537.939	672.2
538.34	697.8
538.742	694.8
539.165	692
539.566	671.8
539.989	676.4
540.391	685
540.814	697.8
541.216	680.2
541.639	689.4
542.041	698.8
542.464	682.8
542.866	679.4
543.268	676.4
543.691	688.6
544.093	696
544.517	708
544.919	679.6
545.343	714.4
545.745	675.8
546.147	685.4
546.571	681.6
546.974	672.4
547.398	686.8
547.8	703
548.224	679.6
548.627	674
549.03	691.6
549.454	676.4
549.857	676
550.281	669
550.684	674
551.087	693.8
551.512	686.8
551.915	684.6
552.34	685.4
552.743	681.2
553.146	688.4
553.571	690.2
553.975	709.8
554.399	674.6
554.803	730.4
555.207	666.8
555.632	671.4
556.036	686.2
556.461	670.2
556.865	674.8
557.268	674
557.694	670.8
558.098	681.8
558.502	689.2
558.927	673.2
559.332	676.2
559.736	672.6
560.162	680.6
560.566	672.6
560.992	680.2
561.396	680.2
561.801	676
562.227	678.4
562.631	678.8
563.036	677.8
563.462	679.6
563.867	677.2
564.272	658.6
564.698	676.8
565.103	667.2
565.508	700.6
565.935	664.4
566.34	680
566.745	686.6
567.172	672.4
567.577	691.4
567.982	688
568.409	682
568.815	660.6
569.22	673.4
569.626	684.8
570.053	666.8
570.459	684.8
570.865	679.4
571.292	685.8
571.698	677
572.104	658.6
572.531	668.8
572.937	685.6
573.343	674.4
573.75	668.8
574.177	670.2
574.583	684.6
574.99	665
575.396	676.2
575.824	668.2
576.231	685.4
576.637	674.6
577.065	698.2
577.472	667
577.879	672.6
578.286	688
578.714	657.4
579.121	668
579.528	678.2
579.935	676.6
580.364	673
580.771	650
581.178	675.8
581.585	678.4
582.014	674.6
582.421	667.6
582.829	667.2
583.236	679.6
583.644	664.4
584.073	672.2
584.481	669
584.889	670.8
585.296	675.8
585.726	672.2
586.134	662.2
586.542	672.6
586.95	694
587.358	658
587.787	672.4
588.196	653.4
588.604	665.6
589.012	661.2
589.421	659.6
589.851	663.8
590.259	674.8
590.668	672.8
591.076	722.4
591.485	661.8
591.894	674
592.324	691.8
592.733	688.2
593.142	657.4
593.551	671
593.96	678.4
594.369	653.8
594.8	655.6
595.209	672
595.618	655.2
596.028	663.4
596.437	655.8
596.847	671.6
597.256	673
597.687	673.8
598.097	664.6
598.507	650.8
598.917	670.6
599.327	669.2
599.736	673.4
600.146	674.2
600.556	672.4
600.988	684.4
601.398	668.8
601.808	681
602.219	663.6
602.629	671.2
603.039	667.6
603.45	700.4
603.86	668.8
604.271	682.6
604.703	669.4
605.114	670
605.525	668.4
605.935	664.6
606.346	691.4
606.757	675
607.168	669.4
607.579	660.2
607.99	682.4
608.402	661.8
608.813	673.4
609.224	661.2
609.636	655
610.047	658.6
610.48	664.8
610.892	678.2
611.303	684.8
611.715	659.2
612.127	660.8
612.539	668.4
612.95	677.6
613.362	656
613.774	656.6
614.186	667.2
614.599	668
615.011	686.2
615.423	661.8
615.835	664
616.248	660
616.66	670.2
617.073	672.2
617.485	666.6
617.898	670.4
618.311	668.8
618.723	671
619.136	704.4
619.549	684
619.962	693.6
620.375	662
620.788	678.6
621.201	665.6
621.614	676
622.028	661.6
622.441	683
622.854	686.4
623.268	675.6
623.681	675.8
624.095	663.6
624.509	675
624.922	669.6
625.336	654.6
625.728	667.6
626.142	671.6
626.556	687.4
626.97	675.6
627.384	661.2
627.799	656
628.213	672.2
628.627	662.2
629.041	664.2
629.456	664.2
629.87	653.6
630.285	675.2
630.699	678.6
631.093	671
631.507	675.4
631.922	663.2
632.337	679.6
632.752	654.6
633.167	666.8
633.582	658.4
633.997	661.8
634.412	652.8
634.806	657.6
635.221	653.6
635.637	674.2
636.052	655.8
636.468	669.6
636.883	681.2
637.299	661.6
637.715	643.2
638.109	662.6
638.525	651.8
638.941	672.8
639.357	661.6
639.773	679.4
640.189	655.6
640.584	664.8
641	666.8
641.416	645.6
641.832	661
642.249	654.4
642.665	661.8
643.06	665.8
643.477	673.8
643.894	650
644.31	657.2
644.727	665.2
645.123	660.6
645.54	655.2
645.957	668.6
646.374	676.6
646.77	664.6
647.187	693
647.604	677.2
648.021	643
648.439	653
648.835	674.2
649.252	666
649.67	664.2
650.088	665.8
650.484	666.4
650.902	666.6
651.32	667.4
651.738	666.4
652.134	663.6
652.552	687.2
652.971	672.8
653.389	665.6
653.786	684
654.204	685.8
654.622	664
655.019	666.6
655.438	670
655.857	672.2
656.275	674.8
656.673	663
657.091	757.4
657.51	653.2
657.908	678.4
658.327	679.6
658.746	654.4
659.144	670.2
659.563	676.6
659.982	664
660.38	654.6
660.8	659.8
661.219	677.8
661.617	671.8
662.037	662.6
662.457	674.2
662.855	646
663.275	698
663.695	660.4
664.094	663.8
664.514	668
664.934	650.4
665.333	667
665.753	658.8
666.152	654.2
666.572	652.8
666.993	668.8
667.392	658
667.812	652
668.212	659.4
668.632	680.8
669.053	660.4
669.453	665.6
669.874	660.6
670.273	661
670.694	657.6
671.116	675.4
671.515	675.6
671.937	659
672.337	650
672.758	656.2
673.158	675.4
673.58	654
673.98	663.6
674.402	680.2
674.824	655
675.224	667.8
675.646	649.6
676.047	664.6
676.469	660.2
676.869	661.4
677.292	656.2
677.693	660.4
678.115	659.6
678.516	661.2
678.939	668
679.34	665.8
679.762	684
680.164	661.6
680.586	655.2
680.988	661
681.411	701
681.812	656
682.236	661.6
682.637	662.6
683.061	645.8
683.462	670.6
683.864	668.8
684.288	676.4
684.69	656
685.114	670.2
685.516	673
685.94	656.4
686.342	673
686.766	652.2
687.168	664.6
687.571	678
687.995	660
688.398	652.6
688.822	663.8
689.225	684
689.628	690.8
690.052	668
690.456	675.8
690.88	662.2
691.284	652.6
691.687	667
692.112	659.4
692.515	654.2
692.919	662.8
693.344	661.4
693.747	669
694.173	659.2
694.577	679.8
694.98	669.2
695.406	665.4
695.81	664.8
696.214	666.6
696.64	666.2
697.044	673
697.448	672
697.874	668
698.279	661.4
698.684	653
699.11	655.2
699.514	669.4
699.919	662.4
700.324	645.6
700.75	656.8
701.156	661.4
701.561	676
701.987	669.4
702.393	680.6
702.798	672.8
703.203	668.2
703.63	661
704.036	662.8
704.442	666.4
704.847	650
705.274	650.4
705.68	675
706.086	678.8
706.492	653.4
706.92	670.8
707.326	672
707.732	665
708.139	659.4
708.545	652
708.973	649.8
709.38	657
709.786	644.8
710.193	678.2
710.6	669
711.028	651
711.435	655.2
711.842	657.8
712.249	656
712.656	660.2
713.064	670.8
713.492	645.4
713.9	662
714.307	664.4
714.715	672.4
715.123	672.4
715.53	669.8
715.938	662.2
716.367	658.4
716.775	663
717.184	635.8
717.592	657.6
718	685.2
718.408	700.2
718.816	715.2
719.225	659.8
719.633	661
720.042	657.8
720.472	659.4
720.881	686.4
721.29	668.6
721.699	655
722.108	673.8
722.517	669.6
722.926	663.6
723.335	672
723.744	665
724.154	662.4
724.563	662
724.973	659.8
725.382	665.8
725.792	660.6
726.202	659.4
726.612	685
727.022	659.2
727.432	648.2
779.813	655
780.223	706.8
780.634	658.4
781.044	652.6
781.454	656
781.865	668.8
782.276	642.4
782.686	671.4
783.097	659.4
783.508	651.4
783.919	658.2
784.33	674.2
784.741	670.4
785.152	650.4
785.563	641.8
785.974	656.4
786.386	665.4
786.776	647.4
787.188	656.4
787.599	647.4
788.011	669.2
788.423	660.8
788.835	656
789.247	644.4
789.659	663.2
790.071	647.4
790.483	708.4
790.874	666.4
791.286	668.8
791.699	657.8
792.111	660.4
792.524	666.8
792.937	655.6
793.349	653
793.741	648
794.154	647.6
794.567	680.2
794.98	652.6
795.393	646.6
795.785	670.6
796.198	651.2
796.612	658.4
797.026	647.2
797.439	634.8
797.831	651.4
798.245	651.6
798.659	657.2
799.073	659.4
799.487	652.8
799.88	655
800.294	660.2
800.708	662.2
801.123	660.8
801.516	682.8
801.93	648.8
802.345	648.6
802.76	656.4
803.153	674.6
803.568	673.4
803.983	674.2
804.377	676
804.792	656.2
805.207	642.2
805.601	653
806.016	700.2
806.432	648.4
806.826	686.6
807.242	670.6
807.658	668.6
808.052	660.2
808.468	659
808.884	661.8
809.279	660.6
809.695	673.8
810.111	677.4
810.506	669.2
810.922	677.2
811.339	652.8
811.734	671.2
812.151	659.2
812.546	649.6
812.963	649
813.38	671
813.776	654.8
814.193	689
814.589	649.6
815.006	660.2
815.402	653.8
815.82	658
816.237	650.6
816.633	663.2
817.051	647
817.448	660.6
817.866	642.4
818.262	681
818.68	653.2
819.077	653.8
819.495	655.2
819.892	707.8
820.311	653.4
820.708	647
821.127	651
821.524	667.8
821.943	660.6
822.34	679.2
822.759	659.6
823.157	663.8
823.576	673
823.974	660.2
824.393	746.4
824.791	655.6
825.189	651.6
825.609	653
826.007	657.8
826.427	640
826.826	664.6
827.246	665.8
827.644	637.6
828.043	675
828.463	652.2
828.862	661
829.261	664.4
829.682	641.8
830.081	667.4
830.502	654.8
830.901	665.4
831.301	652
831.722	651.2
832.121	661.8
832.521	659.2
832.943	651
833.342	657.6
833.742	650.4
834.164	649.8
834.564	648.8
834.965	657
835.386	659
835.787	655.4
836.188	654
836.588	658.2
837.01	656.4
837.411	652.2
837.812	671
838.213	666
838.636	662.8
839.037	741.4
839.438	661
839.84	670.4
840.263	667.4
840.664	662.6
841.066	649.6
841.468	662
841.891	653.8
842.293	673.8
842.695	662.4
843.098	661.4
843.5	656.6
843.902	664.2
844.326	664.8
844.729	663.8
845.131	668.4
845.534	657.6
845.937	674.4
846.34	679.4
846.764	654
847.167	664.2
847.571	661.6
847.974	658.2
848.377	650.8
848.781	710.2
849.184	676.6
849.588	654.8
849.992	652
850.396	659.2
850.821	683.6
851.225	666.4
851.63	649.2
852.034	670.8
852.438	656.4
852.843	788.4
853.247	657.4
853.652	644.2
854.057	673.2
854.462	662
854.867	662.6
855.272	695.8
855.677	660.4
856.082	653
856.487	642.4
856.893	660.6
857.298	661.8
857.704	648.2
