#lambda/nm	C1
208.295	552.2
208.67	500.2
209.045	467.8
209.419	462.6
209.794	687.8
210.169	663
210.544	804.2
210.919	692.4
211.295	674
211.67	683.8
212.045	689
212.421	685
212.796	725.2
213.172	682.6
213.547	680.4
213.923	686.4
214.299	676.4
214.675	686.8
215.051	693.4
215.427	695
215.803	700.6
216.179	696.2
216.555	686
216.932	702.8
217.308	683.2
217.684	693.2
218.061	694.2
218.438	689
218.814	686.6
219.191	701
219.568	682.6
219.945	689.4
220.322	695.8
220.699	697.8
221.076	699.2
221.453	691
221.83	683
222.208	684.4
222.585	688.4
222.962	691.6
223.34	685.8
223.717	683
224.095	684
224.473	687
224.851	693.6
225.229	678.2
225.607	705.6
225.985	684.6
226.363	692.4
226.741	684.4
227.119	688.4
227.497	700.4
227.876	676.4
228.254	703.8
228.633	695.6
229.011	684.8
229.39	697.8
229.769	688
230.148	691.6
230.527	707.4
230.905	696.4
231.284	706
231.664	680.8
232.043	710.8
232.422	689.6
232.801	678
233.181	700
233.56	695.8
233.94	694.4
234.319	676
234.699	687.8
235.079	735.2
235.458	732.4
235.838	710.2
236.218	682.8
236.598	686.6
236.978	681.4
237.358	685.4
237.738	685.6
238.119	691.4
238.499	675.2
238.88	700
239.26	707.4
239.641	685
240.021	674.4
240.402	695.2
240.783	685.8
241.163	693
241.544	690.8
241.925	691
242.306	701.2
242.687	681.6
243.069	691.4
243.45	694.4
243.831	682.6
244.212	690.4
244.594	730
244.975	697.6
245.357	692
245.739	694.4
246.12	698.2
246.502	702.6
246.884	693
247.266	696.8
247.648	698.6
248.03	709
248.412	695.8
248.794	699.8
249.176	687.2
249.559	705
249.941	684.2
250.323	680.2
250.706	690
251.089	692.8
251.471	695.8
251.854	698.4
252.237	694.8
252.62	698.8
253.002	692
253.385	686.2
253.769	699.6
254.152	691.6
254.535	706
254.918	671.6
255.301	682
255.685	686.2
256.068	678.6
256.452	719.8
256.835	696.4
257.219	692.6
257.603	701
257.986	670.4
258.37	699.2
258.754	678.4
259.138	700.2
259.522	704.6
259.906	682
260.29	697.4
260.675	692.4
261.059	698.4
261.443	675.6
261.828	696.6
262.212	699.6
262.597	686
262.981	686.8
263.366	699.2
263.751	686
264.136	684.4
264.521	687.8
264.906	691.2
265.291	695.6
265.676	688
266.061	701
266.446	706
266.831	690.4
267.217	716.2
267.602	691.4
267.987	690.6
268.373	686.2
268.759	699
269.144	701.6
269.53	687
269.916	679.4
270.302	685.6
270.688	702
271.074	691.8
271.46	703.8
271.846	730
272.232	697.8
272.618	683
273.004	693.6
273.391	704
273.777	706
274.164	690.2
274.55	711.4
274.937	702.4
275.324	684.8
275.71	696
276.097	687.8
276.484	678
276.871	690.4
277.258	687.8
277.645	675.4
278.032	687.8
278.419	688.2
278.807	695
279.194	682
279.581	688
279.969	699.4
280.356	695.6
280.744	691.4
281.131	726.6
281.519	699.6
281.907	688
282.295	693.4
282.682	700.4
283.07	693.6
283.458	697.4
283.846	703.2
284.235	705
284.623	697.6
285.011	683.8
285.399	694.2
285.788	693.8
286.176	673.2
286.565	697.4
286.953	686.4
287.342	691.4
287.731	685
288.119	678.2
288.508	686
288.897	696.2
289.286	677.4
289.675	682.6
290.064	702.8
290.453	683
290.821	685.4
291.21	702
291.599	692.2
291.989	688.6
292.378	696.4
292.768	710
293.157	688.6
293.547	702.4
293.936	676.8
294.326	680
294.716	689
295.106	681.6
295.496	696.8
295.886	694.8
296.276	684.6
296.666	684
297.056	692.8
297.446	676.4
297.836	706.8
298.227	689.4
298.617	690.6
299.008	704
299.398	692.2
299.789	684.4
300.179	704
300.57	717.4
300.961	699.8
301.352	680.8
301.742	702.6
302.133	694
302.524	689
302.915	699.2
303.307	681.8
303.698	702.8
304.089	696.6
304.48	692.2
304.872	692.2
305.263	692.8
305.655	676.4
306.046	702.4
306.438	699.6
306.829	689.4
307.221	703
307.613	692
308.005	705.4
308.397	714.2
308.789	720.2
309.181	724.2
309.573	712
309.965	709.8
310.357	694.2
310.749	709.4
311.142	681
311.534	694.6
311.926	710.2
312.319	687
312.711	683.6
313.104	701.8
313.497	687.2
313.889	728.4
314.282	709.2
314.675	725.2
315.068	698.4
315.461	693.2
315.854	732.4
316.247	694.4
316.64	688.8
317.033	690.8
317.405	709
317.798	692.2
318.192	689.8
318.585	679.6
318.979	700.8
319.372	680.2
319.766	685.2
320.16	707.6
320.553	700.4
320.947	708.6
321.341	686.2
321.735	688.6
322.129	672.8
322.523	723.4
322.917	684.4
323.311	699
323.705	701
324.099	699.4
324.494	711.4
324.888	703.6
325.282	688.6
325.677	711.4
326.071	696.4
326.466	712.4
326.861	698.4
327.255	703.2
327.65	712.4
328.045	714
328.44	701.6
328.835	701.4
329.23	683.4
329.625	717.4
330.02	686.6
330.415	724.4
330.81	697
331.206	697
331.601	686.2
331.996	699
332.37	717
332.766	687.4
333.161	718
333.557	691.4
333.953	702.8
334.348	1065.8
334.744	697.2
335.14	682.6
335.536	696.2
335.932	709.8
336.328	693.2
336.724	696
337.12	691.4
337.516	705
337.913	692.6
338.309	711.6
338.705	697.6
339.102	710.6
339.498	684.6
339.895	711.6
340.291	685.8
340.688	700.4
341.085	692.4
341.481	690.2
341.878	687.4
342.275	715.8
342.672	682.2
343.069	683
343.466	676.4
343.842	701.6
344.239	690.8
344.636	687.2
345.033	680.4
345.431	691.8
345.828	689.8
346.225	680.2
346.623	733.2
347.02	692.6
347.418	696.6
347.816	706.6
348.213	679.2
348.611	696.2
349.009	683.4
349.407	694.4
349.805	675.2
350.203	681.8
350.601	707.8
350.999	693.8
351.397	748.6
351.795	685.4
352.193	698.6
352.57	695.6
352.969	709
353.367	686.2
353.766	675.8
354.164	695.4
354.563	705.6
354.961	686.8
355.36	679.4
355.759	685.8
356.158	683
356.557	687.2
356.956	680.6
357.355	680.6
357.754	695.2
358.153	695.4
358.552	709
358.951	686.8
359.35	700
359.75	680.2
360.149	685.4
360.527	676.2
360.926	673.6
361.326	683.8
361.726	679
362.125	683.8
362.525	696.8
362.925	675.8
363.325	693.2
363.724	696.6
364.124	680.6
364.524	673.4
364.924	691.4
365.324	705.4
365.725	662.8
366.125	688.6
366.525	692
366.904	682.4
367.304	666.8
367.705	702.6
368.105	708.8
368.506	692.2
368.906	684.4
369.307	691.6
369.708	691.4
370.108	673.2
370.509	692.4
370.91	681.8
371.311	691.6
371.712	689
372.113	682.4
372.514	667.8
372.894	685.8
373.295	678
373.696	696
374.097	685
374.499	713.4
374.9	689.2
375.301	682.2
375.703	694
376.105	672.8
376.506	691.8
376.908	686.8
377.309	687
377.711	681.2
378.113	672.4
378.493	681.6
378.895	678.8
379.297	690.4
379.699	670.6
380.102	691
380.504	689.6
380.906	678.2
381.308	699.2
381.71	687
382.113	700
382.515	683.8
382.918	688.4
383.299	688.6
383.701	686.6
384.104	688.4
384.507	670
384.909	683.4
385.312	676.2
385.715	670.2
386.118	683.2
386.521	670.6
386.924	706
387.327	673.8
387.709	669.6
388.112	666.4
388.515	671.6
388.918	682.6
389.322	690.6
389.725	674.4
390.129	699.6
390.532	695.8
390.936	685.6
391.339	676.4
391.743	692.4
392.125	671.6
392.529	692
392.933	691.6
393.337	685
393.74	686.8
394.144	686.6
394.548	679
394.953	675
395.357	684.6
395.761	681.8
396.144	678
396.548	668.4
396.952	681.6
397.357	680.4
397.761	673.2
398.166	676.4
398.57	672
398.975	662.8
399.379	677.8
399.763	733.8
400.168	689.2
400.572	686
400.977	676
401.382	704.2
401.787	702.4
402.192	701
402.597	695
403.002	674.8
403.386	698.8
403.791	700.6
404.197	684.8
404.602	688
405.007	691
405.413	687.2
405.818	695.2
406.224	687.4
406.608	680.8
407.014	672.6
407.42	699.2
407.825	673.6
408.231	688.2
408.637	703.6
409.043	696.8
409.449	685.8
409.834	680.4
410.24	684
410.646	700.4
411.052	698.8
411.458	694.4
411.865	691.2
412.271	697.4
412.677	692.8
413.062	695
413.469	674
413.875	716
414.282	692.6
414.689	694.2
415.095	699.2
415.502	676.8
415.888	689
416.294	670.4
416.701	730.6
417.108	675
417.515	695
417.923	685.8
418.33	712
418.715	695.6
419.123	677.4
419.53	678.2
419.937	685.8
420.345	705.6
420.752	682.6
421.16	707.6
421.546	676.2
421.953	698.4
422.361	666.6
422.769	684.6
423.177	675.8
423.585	713.6
423.992	710
424.379	707.4
424.787	694.4
425.195	704
425.603	683.2
426.011	700
426.419	700
426.806	684
427.214	700.6
427.623	696
428.031	707.6
428.44	694.4
428.848	705.8
429.235	710.2
429.644	693.2
430.053	694.4
430.461	708.8
430.87	717.2
431.279	700
431.666	683.2
432.075	692.6
432.484	702.2
432.893	686.6
433.302	723
433.711	745.2
434.099	695.8
434.508	698.6
434.918	684.8
435.327	704
435.737	700.4
436.125	700.4
436.534	703.6
436.944	700.6
437.353	706.6
437.763	731.4
438.173	690.8
438.561	716
438.971	683.2
439.381	707.4
439.791	708
440.201	683.6
440.589	705.4
440.999	709.6
441.409	713.4
441.819	701
442.23	718.6
442.619	724.6
443.029	711.4
443.439	718.4
443.85	734
444.26	733.6
444.649	724.8
445.06	721.8
445.471	716
445.881	730.4
446.292	737.6
446.682	755.2
447.092	714.6
447.503	774.6
447.914	731
448.325	734.4
448.715	722
449.126	718.8
449.537	722
449.948	727
450.338	731
450.75	736.4
451.161	736
451.572	741.8
451.984	724.2
452.374	711.2
452.786	727.2
453.197	735.4
453.609	740
453.999	711.4
454.411	722.8
454.823	743.4
455.235	741.4
455.647	737.6
456.037	744
456.449	724.4
456.862	753.2
457.274	744
457.665	726.4
458.077	748
458.489	782.2
458.902	740.4
459.293	738
459.705	743.4
460.118	740.4
460.53	747
460.921	744.4
461.334	742.2
461.747	745.2
462.16	751
462.551	753.2
462.964	744.6
463.377	726.6
463.79	733
464.182	748.6
464.595	727.6
465.008	753
465.421	756
465.813	724.2
466.226	742.2
466.64	731.8
467.053	796.8
467.445	764.6
467.859	763
468.272	745
468.686	760.2
469.078	742.8
469.492	731
469.906	739.8
470.298	747.2
470.712	734.4
471.126	800
471.54	735
471.933	728.8
472.347	740.4
472.761	736
473.175	738
473.568	748
473.982	739.6
474.397	742.4
474.79	744.4
475.204	750.8
475.619	748.8
476.033	739.6
476.426	750.4
476.841	738.6
477.256	763.8
477.649	734.6
478.064	727
478.479	737.2
478.872	732.6
479.287	722.8
479.702	734
480.118	730.2
480.511	738.4
480.927	735.2
481.342	736
481.736	743
482.151	733.4
482.566	754
482.96	733.2
483.376	746.6
483.792	726.8
484.186	740
484.602	732.8
485.017	736.2
485.412	733.6
485.827	741.8
486.243	728
486.638	766.6
487.054	742.4
487.47	753.4
487.865	738.6
488.281	727.8
488.697	725.4
489.092	733.4
489.508	723.6
489.925	742.8
490.32	715.4
490.736	740.6
491.153	730
491.548	731.6
491.964	743.6
492.381	717.8
492.776	747
493.193	727.6
493.61	733.6
494.006	737.2
494.422	735.8
494.84	721
495.235	744.6
495.652	732
496.069	731.4
496.465	717
496.883	726
497.3	752.2
497.696	722.2
498.113	726
498.509	709.4
498.927	705.8
499.344	718.2
499.741	709.6
500.158	735.6
500.576	738
500.973	719.8
501.39	713.6
501.787	716.2
502.205	716.6
502.623	711.2
503.02	712.2
503.438	706
503.856	714.4
504.253	719.2
504.671	714.2
505.068	710.2
505.486	721
505.905	733.2
506.302	716.2
506.72	729
507.118	706.6
507.536	714.4
507.955	716.6
508.352	717.4
508.771	722
509.169	718.8
509.587	708.6
510.006	713.6
510.404	702.6
510.823	709.4
511.221	718.2
511.64	713
512.038	732.8
512.457	722.8
512.877	714
513.275	703
513.694	702.8
514.092	712.4
514.512	720.2
514.91	706.6
515.33	712
515.749	714
516.148	713.2
516.568	716.8
516.966	701.4
517.386	699.6
517.785	710
518.205	695.2
518.603	707.4
519.024	700.4
519.444	709.2
519.843	719.6
520.263	717
520.662	713.6
521.082	704.8
521.481	712.2
521.902	701.8
522.301	696.2
522.722	703
523.121	692.8
523.542	691.6
523.963	688
524.362	703.6
524.783	709.6
525.183	698.2
525.604	699.8
526.003	690.6
526.425	681
526.824	707.2
527.246	709
527.646	714.6
528.067	698.4
528.467	694.8
528.888	703.4
529.289	684.2
529.71	703.6
530.11	696.4
530.532	686.8
530.932	693.6
531.354	686.8
531.755	734.2
532.176	699
532.577	697.4
532.999	690
533.4	693.6
533.822	695.6
534.223	695.4
534.645	693.8
535.046	689.8
535.468	691.8
535.869	707.4
536.292	688.6
536.693	729
537.115	699.4
537.516	696
537.939	689.8
538.34	714.2
538.742	711.8
539.165	695
539.566	695.6
539.989	687.6
540.391	685
540.814	686.6
541.216	690
541.639	690
542.041	703.2
542.464	695
542.866	680.2
543.268	682.2
543.691	695.8
544.093	705
544.517	720
544.919	682.2
545.343	715.4
545.745	679.6
546.147	691.4
546.571	682.8
546.974	678.6
547.398	693.2
547.8	705.6
548.224	690.6
548.627	682.6
549.03	692.8
549.454	683
549.857	671.4
550.281	678.6
550.684	681
551.087	698.2
551.512	689.4
551.915	691.8
552.34	686.8
552.743	681
553.146	693
553.571	694.6
553.975	717.2
554.399	676.2
554.803	743.6
555.207	683.2
555.632	672.6
556.036	693.8
556.461	678.2
556.865	678
557.268	681.6
557.694	683.2
558.098	694.6
558.502	696.8
558.927	690
559.332	690.4
559.736	689.6
560.162	688.2
560.566	682.4
560.992	691.6
561.396	683.4
561.801	686.4
562.227	687.2
562.631	689.4
563.036	684.8
563.462	687
563.867	682.8
564.272	671.2
564.698	690.4
565.103	669.6
565.508	706
565.935	682
566.34	677.8
566.745	691.4
567.172	673.8
567.577	699.6
567.982	688
568.409	686
568.815	673.6
569.22	672.8
569.626	685.4
570.053	670.2
570.459	683.6
570.865	696.4
571.292	685.4
571.698	682.8
572.104	671.6
572.531	678.8
572.937	691
573.343	669.2
573.75	678.6
574.177	676.8
574.583	690
574.99	685.6
575.396	688.6
575.824	669.4
576.231	681
576.637	664.8
577.065	702.8
577.472	668.4
577.879	676.2
578.286	695.8
578.714	665.4
579.121	675.2
579.528	684.4
579.935	690.8
580.364	680.2
580.771	664.2
581.178	676
581.585	680
582.014	677.4
582.421	675.2
582.829	668.2
583.236	681.2
583.644	667
584.073	673.2
584.481	668.8
584.889	673.2
585.296	678.8
585.726	669.4
586.134	660.8
586.542	661.8
586.95	694
587.358	663
587.787	671.6
588.196	664.2
588.604	672.4
589.012	673.6
589.421	661.2
589.851	663.2
590.259	682
590.668	673.4
591.076	717.4
591.485	663
591.894	675.6
592.324	687
592.733	694.2
593.142	659.4
593.551	665
593.96	713
594.369	662.2
594.8	664.4
595.209	674.8
595.618	660.2
596.028	669.6
596.437	660.6
596.847	669.8
597.256	677.6
597.687	681.6
598.097	671
598.507	659.4
598.917	681.4
599.327	678
599.736	679
600.146	680.2
600.556	680.8
600.988	686
601.398	662.8
601.808	677.2
602.219	665.6
602.629	662.8
603.039	674.4
603.45	698.4
603.86	671.2
604.271	686.8
604.703	664.2
605.114	672.6
605.525	674.2
605.935	673.8
606.346	682.8
606.757	679.4
607.168	671.2
607.579	664
607.99	674.6
608.402	670.2
608.813	665.6
609.224	667.2
609.636	664.4
610.047	663.2
610.48	669.6
610.892	685
611.303	677
611.715	666.2
612.127	660.2
612.539	669.8
612.95	667.8
613.362	658
613.774	656
614.186	662.4
614.599	664.6
615.011	678.2
615.423	662.6
615.835	663.8
616.248	657.4
616.66	669.8
617.073	662.2
617.485	670
617.898	680.8
618.311	681
618.723	672.8
619.136	707
619.549	685.8
619.962	690
620.375	665.8
620.788	672.4
621.201	665.6
621.614	686
622.028	670.6
622.441	666.4
622.854	680.6
623.268	662
623.681	677.4
624.095	667
624.509	676.2
624.922	674.8
625.336	662.8
625.728	673
626.142	680.8
626.556	689.4
626.97	677.2
627.384	663
627.799	671.2
628.213	681.2
628.627	660.6
629.041	662.8
629.456	662.2
629.87	665
630.285	680.2
630.699	679.8
631.093	673
631.507	670.8
631.922	666.2
632.337	676.6
632.752	664.4
633.167	668
633.582	659
633.997	664
634.412	659
634.806	669.4
635.221	652
635.637	673.8
636.052	656.2
636.468	674.8
636.883	700.4
637.299	657.8
637.715	655.2
638.109	668.4
638.525	658
638.941	689.2
639.357	675.2
639.773	679.8
640.189	662.4
640.584	667.4
641	668.6
641.416	652
641.832	657.6
642.249	662.2
642.665	665.2
643.06	680.8
643.477	678.8
643.894	644.8
644.31	674.8
644.727	664
645.123	666.8
645.54	658.6
645.957	666.2
646.374	684.2
646.77	671.6
647.187	701.4
647.604	674.6
648.021	650.6
648.439	660
648.835	672.4
649.252	666.2
649.67	671.2
650.088	676.4
650.484	671.4
650.902	672.4
651.32	671.4
651.738	662.6
652.134	671.2
652.552	688.6
652.971	677.6
653.389	658
653.786	687
654.204	685.4
654.622	666.6
655.019	667
655.438	671
655.857	670
656.275	676
656.673	658.8
657.091	742
657.51	668.2
657.908	679.6
658.327	688.4
658.746	661.2
659.144	674.6
659.563	686
659.982	674.6
660.38	660
660.8	663.8
661.219	678.4
661.617	678.2
662.037	669
662.457	677.6
662.855	651.4
663.275	704.8
663.695	670.2
664.094	665
664.514	667.8
664.934	661.2
665.333	675
665.753	660.6
666.152	653
666.572	661.4
666.993	687.4
667.392	668.6
667.812	665.8
668.212	664.2
668.632	680.8
669.053	655
669.453	671.8
669.874	669.6
670.273	674.4
670.694	658.4
671.116	671.2
671.515	668.2
671.937	667
672.337	661
672.758	665.6
673.158	670.8
673.58	652.8
673.98	669.2
674.402	678.8
674.824	664.4
675.224	659
675.646	653.2
676.047	666.6
676.469	665.4
676.869	667
677.292	672.8
677.693	664
678.115	661.4
678.516	677.4
678.939	669
679.34	664.2
679.762	681.6
680.164	677.6
680.586	654.2
680.988	671
681.411	696
681.812	666.2
682.236	657
682.637	656.4
683.061	650.4
683.462	674.2
683.864	663.4
684.288	675.2
684.69	652
685.114	678.2
685.516	677.8
685.94	647.4
686.342	677.8
686.766	654
687.168	659.2
687.571	680.6
687.995	662.2
688.398	662.2
688.822	654.4
689.225	678.6
689.628	683.2
690.052	661
690.456	668.6
690.88	668.2
691.284	653
691.687	660.8
692.112	656.8
692.515	648.8
692.919	668.4
693.344	668.6
693.747	664
694.173	660
694.577	673.8
694.98	668.2
695.406	666.8
695.81	659.6
696.214	670.6
696.64	655
697.044	671
697.448	676.2
697.874	661.6
698.279	665.8
698.684	647
699.11	662.2
699.514	659.4
699.919	661.2
700.324	654.4
700.75	670.8
701.156	669.6
701.561	680
701.987	669.4
702.393	677.2
702.798	680.4
703.203	660.4
703.63	665.4
704.036	653
704.442	667.6
704.847	649.8
705.274	660.6
705.68	659.6
706.086	673
706.492	660
706.92	658.8
707.326	674.8
707.732	649
708.139	655.6
708.545	662
708.973	662
709.38	662
709.786	649.4
710.193	677.6
710.6	669.4
711.028	651.4
711.435	660.2
711.842	658
712.249	652
712.656	658.2
713.064	677.6
713.492	654.8
713.9	657.8
714.307	666.8
714.715	661
715.123	663
715.53	666
715.938	671.8
716.367	661.6
716.775	665.8
717.184	652.8
717.592	666.4
718	677
718.408	707.8
718.816	712.6
719.225	666.4
719.633	658.6
720.042	653.2
720.472	666.4
720.881	686.4
721.29	668.4
721.699	654
722.108	668.6
722.517	673.2
722.926	657.6
723.335	686
723.744	659.8
724.154	661.6
724.563	666.8
724.973	669
725.382	674.4
725.792	669.2
726.202	653.4
726.612	683.2
727.022	671
727.432	661.4
779.813	660.6
780.223	712
780.634	663.4
781.044	660.6
781.454	667
781.865	673.6
782.276	651.4
782.686	673
783.097	652
783.508	657.2
783.919	663.8
784.33	682.8
784.741	671.4
785.152	656
785.563	645.8
785.974	648
786.386	671.4
786.776	656.2
787.188	659.8
787.599	650.8
788.011	670.6
788.423	665.8
788.835	652
789.247	650.2
789.659	656.2
790.071	653.2
790.483	704
790.874	665.2
791.286	669.4
791.699	652.8
792.111	665.2
792.524	661.8
792.937	654.6
793.349	655.8
793.741	656.2
794.154	661.4
794.567	680.4
794.98	658.8
795.393	652.8
795.785	677.6
796.198	654
796.612	665.4
797.026	655.6
797.439	646.8
797.831	654.2
798.245	653.6
798.659	660.2
799.073	661.6
799.487	654
799.88	661.4
800.294	669.4
800.708	671.6
801.123	659.2
801.516	684
801.93	646.6
802.345	655.6
802.76	654.2
803.153	686.4
803.568	681
803.983	675.6
804.377	667.2
804.792	645.4
805.207	644.8
805.601	661.2
806.016	699.8
806.432	659.8
806.826	705.4
807.242	681.6
807.658	668
808.052	662.6
808.468	650.8
808.884	657.6
809.279	664.8
809.695	684.2
810.111	684.6
810.506	668.2
810.922	685.2
811.339	659
811.734	670.6
812.151	662
812.546	653.2
812.963	648.4
813.38	668.6
813.776	661.6
814.193	695.2
814.589	653
815.006	660.2
815.402	655.6
815.82	659.2
816.237	662.2
816.633	664
817.051	660.8
817.448	657.4
817.866	647.8
818.262	687.2
818.68	663.8
819.077	659.2
819.495	672.6
819.892	712.8
820.311	661.4
820.708	653
821.127	659
821.524	680.6
821.943	662.2
822.34	679.6
822.759	660.4
823.157	662.8
823.576	682.8
823.974	669.2
824.393	743.8
824.791	660.2
825.189	645.4
825.609	650.8
826.007	663
826.427	643.2
826.826	652.8
827.246	663.4
827.644	635.8
828.043	661.6
828.463	656.2
828.862	670.8
829.261	668.8
829.682	648.8
830.081	669
830.502	644.6
830.901	662.2
831.301	654
831.722	652.4
832.121	654.6
832.521	647
832.943	658.6
833.342	654.2
833.742	648.8
834.164	659
834.564	647.8
834.965	662.2
835.386	653.6
835.787	663.4
836.188	663.4
836.588	665.2
837.01	653.2
837.411	657.2
837.812	663.2
838.213	666.2
838.636	653.8
839.037	744.4
839.438	664.2
839.84	667
840.263	673.8
840.664	668
841.066	661.8
841.468	658.4
841.891	656.2
842.293	673.2
842.695	665.2
843.098	668
843.5	658.2
843.902	672
844.326	661.6
844.729	657.4
845.131	668.4
845.534	660.8
845.937	666
846.34	679.6
846.764	654.6
847.167	660.6
847.571	645.4
847.974	655.6
848.377	650.6
848.781	717.4
849.184	680.8
849.588	657
849.992	661.6
850.396	657
850.821	677.2
851.225	662.6
851.63	666
852.034	674.2
852.438	654.4
852.843	707.8
853.247	648
853.652	658
854.057	680.2
854.462	662.6
854.867	659
855.272	688.4
855.677	670.2
856.082	653.6
856.487	648.6
856.893	666.8
857.298	660.8
857.704	662.8
858.11	664
858.516	669.4
858.922	653
