#lambda/nm	C1
208.295	547
208.67	494.4
209.045	456.4
209.419	453.2
209.794	691.8
210.169	673
210.544	821.8
210.919	688.4
211.295	690
211.67	695.8
212.045	697.4
212.421	687.2
212.796	734.4
213.172	690
213.547	681.6
213.923	689.8
214.299	683.8
214.675	700.4
215.051	696.6
215.427	694.6
215.803	712.8
216.179	694.2
216.555	681.6
216.932	695.2
217.308	690.6
217.684	687.2
218.061	695
218.438	692.4
218.814	688
219.191	697
219.568	677.6
219.945	692
220.322	691.6
220.699	696.4
221.076	700.4
221.453	699.6
221.83	684.4
222.208	682.2
222.585	685.6
222.962	694
223.34	694.8
223.717	686.2
224.095	695.8
224.473	695.2
224.851	682.8
225.229	689.8
225.607	710.4
225.985	681.4
226.363	694.2
226.741	690.2
227.119	689.6
227.497	701.8
227.876	669.2
228.254	691.8
228.633	687
229.011	687.6
229.39	694
229.769	695.8
230.148	691.8
230.527	713
230.905	692.4
231.284	700
231.664	682.4
232.043	701.2
232.422	699.6
232.801	687
233.181	696.8
233.56	688.2
233.94	688.2
234.319	676.2
234.699	689.6
235.079	734
235.458	740
235.838	714.8
236.218	683.8
236.598	683.2
236.978	687.2
237.358	682.6
237.738	683.6
238.119	708.8
238.499	679.6
238.88	693.2
239.26	710.6
239.641	677.6
240.021	680
240.402	688
240.783	680.6
241.163	689.6
241.544	695.8
241.925	681.6
242.306	700
242.687	684.8
243.069	689.4
243.45	703
243.831	677.2
244.212	684.2
244.594	731.2
244.975	698.8
245.357	700
245.739	680.8
246.12	692.2
246.502	708.2
246.884	681.8
247.266	684.4
247.648	694.6
248.03	721
248.412	701
248.794	699.6
249.176	689.4
249.559	705
249.941	688.4
250.323	687.6
250.706	682.4
251.089	679.8
251.471	698.6
251.854	690.2
252.237	694.2
252.62	698.2
253.002	691.6
253.385	691
253.769	702.4
254.152	684.2
254.535	699
254.918	685.8
255.301	686.6
255.685	686
256.068	677
256.452	720.4
256.835	704.2
257.219	695.4
257.603	698.2
257.986	682
258.37	696.8
258.754	690.2
259.138	690.8
259.522	699.2
259.906	680
260.29	697.4
260.675	701.6
261.059	701.8
261.443	678.2
261.828	701.6
262.212	692.8
262.597	679.8
262.981	680.2
263.366	710.2
263.751	691.2
264.136	678
264.521	692
264.906	683.4
265.291	702.6
265.676	692.2
266.061	706.6
266.446	717.6
266.831	694.2
267.217	721.6
267.602	694.6
267.987	702.2
268.373	691
268.759	713
269.144	691.8
269.53	688.4
269.916	691.6
270.302	689.4
270.688	693.8
271.074	694.6
271.46	709.8
271.846	728.4
272.232	691.2
272.618	685
273.004	695.6
273.391	709.2
273.777	711.6
274.164	699.4
274.55	715.6
274.937	704.8
275.324	691.4
275.71	694
276.097	698.4
276.484	689.4
276.871	697.8
277.258	697.2
277.645	672.8
278.032	688.2
278.419	691.4
278.807	695.6
279.194	678.8
279.581	685.8
279.969	697.4
280.356	698.4
280.744	693.2
281.131	718
281.519	703
281.907	688.4
282.295	691.2
282.682	706.4
283.07	692.4
283.458	706.4
283.846	701.4
284.235	702.2
284.623	704.6
285.011	688
285.399	692.8
285.788	694.2
286.176	683.2
286.565	702.2
286.953	680
287.342	694.2
287.731	684.2
288.119	684.2
288.508	694.4
288.897	698
289.286	679.4
289.675	689.4
290.064	706
290.453	690.2
290.821	695
291.21	707.6
291.599	683.2
291.989	696.2
292.378	699.6
292.768	705.4
293.157	690
293.547	702.6
293.936	689.6
294.326	689.2
294.716	696.2
295.106	693
295.496	699.4
295.886	702.2
296.276	690.4
296.666	688.6
297.056	697.6
297.446	690
297.836	715.8
298.227	683
298.617	699.4
299.008	714.4
299.398	693.4
299.789	689.8
300.179	699.4
300.57	712
300.961	694.2
301.352	688.8
301.742	707
302.133	702.8
302.524	689
302.915	700.8
303.307	681.6
303.698	706.8
304.089	703.4
304.48	692.6
304.872	708.4
305.263	697
305.655	691.8
306.046	705.8
306.438	697.6
306.829	684.4
307.221	711.4
307.613	708.6
308.005	704.6
308.397	713
308.789	719.6
309.181	725.4
309.573	712
309.965	706.4
310.357	689.6
310.749	706.8
311.142	688.6
311.534	693.6
311.926	698.2
312.319	699
312.711	691.2
313.104	708.2
313.497	689
313.889	739.6
314.282	715.4
314.675	727.8
315.068	691.6
315.461	702.2
315.854	736.6
316.247	705.8
316.64	691.4
317.033	686.6
317.405	708
317.798	689.2
318.192	703.8
318.585	683.2
318.979	699
319.372	693
319.766	697.8
320.16	707.2
320.553	716.2
320.947	720.2
321.341	684.2
321.735	696.6
322.129	683.8
322.523	721.8
322.917	679.8
323.311	716.4
323.705	700.8
324.099	705.4
324.494	711.6
324.888	707.2
325.282	689.8
325.677	708.2
326.071	694.6
326.466	702.8
326.861	692
327.255	709.2
327.65	710.6
328.045	715.8
328.44	688.2
328.835	695.4
329.23	693.2
329.625	711.4
330.02	697.2
330.415	708.2
330.81	696.2
331.206	699.6
331.601	688.4
331.996	706.8
332.37	719.2
332.766	680.6
333.161	716.2
333.557	692.8
333.953	699.4
334.348	1027.4
334.744	693
335.14	697
335.536	696.6
335.932	711
336.328	699.4
336.724	708.2
337.12	688
337.516	696.4
337.913	692.2
338.309	710.2
338.705	695
339.102	712
339.498	703.4
339.895	713.4
340.291	690.2
340.688	705.2
341.085	673.4
341.481	693.6
341.878	691
342.275	709.8
342.672	682.6
343.069	685.6
343.466	679.2
343.842	700.8
344.239	680.4
344.636	692
345.033	676
345.431	680.4
345.828	684.6
346.225	681
346.623	732
347.02	686.6
347.418	700.8
347.816	711.8
348.213	676
348.611	699
349.009	678
349.407	699.8
349.805	677.8
350.203	673.8
350.601	697.4
350.999	694.8
351.397	762.6
351.795	694.6
352.193	698.6
352.57	702.6
352.969	713
353.367	678.8
353.766	677
354.164	689.8
354.563	706.6
354.961	687
355.36	685.4
355.759	684.4
356.158	673
356.557	680.4
356.956	679.4
357.355	677
357.754	694.8
358.153	695.2
358.552	724.6
358.951	693.6
359.35	707.4
359.75	684.4
360.149	683
360.527	666.2
360.926	685.2
361.326	684.8
361.726	690.6
362.125	683.6
362.525	703.6
362.925	680.6
363.325	680.4
363.724	686.2
364.124	686.6
364.524	687
364.924	687
365.324	699.2
365.725	686.2
366.125	697
366.525	687.4
366.904	684.4
367.304	672.6
367.705	712.6
368.105	701.2
368.506	688.4
368.906	692
369.307	681.8
369.708	696
370.108	678.2
370.509	704.8
370.91	681
371.311	694.6
371.712	695.4
372.113	691.6
372.514	663.8
372.894	687.4
373.295	676.6
373.696	693.4
374.097	702
374.499	721.8
374.9	691
375.301	682.2
375.703	686.4
376.105	675.2
376.506	694.2
376.908	693.2
377.309	685.4
377.711	687.8
378.113	680
378.493	691.4
378.895	680.6
379.297	704.2
379.699	665.8
380.102	702
380.504	694
380.906	679
381.308	716
381.71	684.2
382.113	698
382.515	688.8
382.918	683
383.299	688.2
383.701	692.8
384.104	683.6
384.507	671.2
384.909	681.8
385.312	673.4
385.715	679
386.118	679.8
386.521	679.6
386.924	701.6
387.327	685
387.709	678.4
388.112	669.8
388.515	686.4
388.918	682.8
389.322	686.2
389.725	682.4
390.129	711.8
390.532	690.8
390.936	673.2
391.339	670.2
391.743	686.8
392.125	681.8
392.529	700.6
392.933	701.2
393.337	691.4
393.74	692.4
394.144	684.6
394.548	674
394.953	683.6
395.357	690.2
395.761	679
396.144	684.2
396.548	675.4
396.952	680
397.357	689
397.761	675.6
398.166	680
398.57	681.8
398.975	671.4
399.379	689.6
399.763	734.8
400.168	687.4
400.572	688
400.977	688.4
401.382	701.4
401.787	697.8
402.192	699.4
402.597	697.6
403.002	676.4
403.386	693.4
403.791	705
404.197	682.4
404.602	681.4
405.007	689.2
405.413	682.8
405.818	685
406.224	677.6
406.608	681.4
407.014	680.4
407.42	706.4
407.825	681
408.231	688.8
408.637	689.6
409.043	704.2
409.449	682.4
409.834	679.4
410.24	695.6
410.646	706.8
411.052	695.2
411.458	694.4
411.865	693.2
412.271	695.8
412.677	687.4
413.062	702.8
413.469	677.2
413.875	714.4
414.282	703.2
414.689	691.6
415.095	699.8
415.502	680.6
415.888	693
416.294	671.8
416.701	731
417.108	680.8
417.515	683.8
417.923	683.4
418.33	705.2
418.715	700.2
419.123	682.8
419.53	679.6
419.937	686.4
420.345	703.4
420.752	687.6
421.16	700.8
421.546	687.4
421.953	698
422.361	679.2
422.769	686.6
423.177	675.8
423.585	716.6
423.992	716.4
424.379	697.8
424.787	696
425.195	709
425.603	693.2
426.011	705.6
426.419	702.6
426.806	695.2
427.214	694
427.623	711
428.031	708.2
428.44	703.4
428.848	709
429.235	716
429.644	688.2
430.053	690
430.461	714.4
430.87	714.2
431.279	697
431.666	681.2
432.075	689.6
432.484	699.8
432.893	691
433.302	705.2
433.711	751.6
434.099	698.6
434.508	690
434.918	681.4
435.327	694.4
435.737	695.4
436.125	701.2
436.534	696
436.944	711.2
437.353	706.2
437.763	716.8
438.173	692
438.561	709.2
438.971	680
439.381	695.2
439.791	705
440.201	678
440.589	703.4
440.999	710
441.409	711.6
441.819	688.8
442.23	714.8
442.619	718.2
443.029	715.2
443.439	723
443.85	728
444.26	733.2
444.649	730
445.06	716.6
445.471	702
445.881	715.2
446.292	726
446.682	742.6
447.092	695.2
447.503	779.8
447.914	719.8
448.325	709.4
448.715	714.2
449.126	709.2
449.537	711.8
449.948	716.2
450.338	722
450.75	732
451.161	720.4
451.572	732
451.984	716.8
452.374	702.4
452.786	718.4
453.197	735.2
453.609	729.4
453.999	706.6
454.411	713.8
454.823	739
455.235	721.2
455.647	727.2
456.037	731.8
456.449	710
456.862	732
457.274	726.8
457.665	722.4
458.077	728
458.489	767.8
458.902	723.8
459.293	725
459.705	726.6
460.118	721.6
460.53	724.6
460.921	726.6
461.334	732.2
461.747	728.8
462.16	745.2
462.551	746.6
462.964	739.6
463.377	711
463.79	732.8
464.182	747.4
464.595	727
465.008	741.6
465.421	732.8
465.813	727.4
466.226	735.8
466.64	721.2
467.053	784.8
467.445	738
467.859	747.8
468.272	740.6
468.686	752.8
469.078	731.2
469.492	728.4
469.906	741
470.298	735.8
470.712	738.6
471.126	797.2
471.54	716.2
471.933	724.2
472.347	733.8
472.761	726.6
473.175	728.8
473.568	727.6
473.982	724.2
474.397	732.2
474.79	735.4
475.204	739.4
475.619	725.6
476.033	729.4
476.426	731
476.841	728.4
477.256	758.8
477.649	719
478.064	727
478.479	722.8
478.872	724.2
479.287	715.6
479.702	733.2
480.118	731
480.511	727
480.927	727.2
481.342	722.4
481.736	734
482.151	735
482.566	741.2
482.96	735.6
483.376	741.6
483.792	720.4
484.186	727.4
484.602	717
485.017	721.8
485.412	731.2
485.827	730.2
486.243	724.4
486.638	762.4
487.054	737.8
487.47	745.8
487.865	718.8
488.281	725.6
488.697	718.2
489.092	726
489.508	722.8
489.925	735.4
490.32	713.8
490.736	730.6
491.153	727
491.548	727.4
491.964	733.4
492.381	697.8
492.776	733.4
493.193	716.6
493.61	732.6
494.006	722
494.422	731.2
494.84	714.6
495.235	729
495.652	718.8
496.069	732
496.465	708
496.883	714.8
497.3	754
497.696	713
498.113	728.8
498.509	709.2
498.927	710.2
499.344	695.2
499.741	719.2
500.158	726.6
500.576	725.6
500.973	723
501.39	703.4
501.787	703
502.205	721.4
502.623	696.8
503.02	700.6
503.438	714.6
503.856	713.4
504.253	721.4
504.671	710
505.068	707.8
505.486	719.4
505.905	727.4
506.302	711.2
506.72	727.2
507.118	704.2
507.536	719.2
507.955	710.6
508.352	714.8
508.771	718.4
509.169	714.8
509.587	699.6
510.006	709.8
510.404	695.2
510.823	703.6
511.221	704.8
511.64	706.8
512.038	710.6
512.457	712
512.877	701.8
513.275	693.6
513.694	704.2
514.092	704.6
514.512	708.8
514.91	696.2
515.33	709
515.749	709.8
516.148	704.8
516.568	712.2
516.966	704.2
517.386	692.6
517.785	695.8
518.205	696.6
518.603	703.6
519.024	689.2
519.444	708.6
519.843	702.6
520.263	715.8
520.662	697.6
521.082	705.6
521.481	698.8
521.902	694
522.301	695.6
522.722	695.2
523.121	693.4
523.542	695.8
523.963	695.6
524.362	695.8
524.783	712.8
525.183	692.2
525.604	699.8
526.003	684.6
526.425	687.8
526.824	697.6
527.246	703.2
527.646	701.8
528.067	696.8
528.467	699.6
528.888	693.4
529.289	691
529.71	697
530.11	684.4
530.532	689.2
530.932	687.4
531.354	682.8
531.755	733.4
532.176	701.4
532.577	686.8
532.999	692.6
533.4	685.6
533.822	697.2
534.223	694.8
534.645	684.2
535.046	682.6
535.468	679.4
535.869	701.2
536.292	689.2
536.693	723.6
537.115	690.2
537.516	685.6
537.939	681
538.34	701
538.742	699.6
539.165	682
539.566	681.6
539.989	674
540.391	680.6
540.814	687.8
541.216	686.6
541.639	686
542.041	700.2
542.464	682.2
542.866	687.4
543.268	672.2
543.691	685.6
544.093	697
544.517	717.4
544.919	679.4
545.343	711.4
545.745	680.6
546.147	685.8
546.571	684.4
546.974	671.6
547.398	680
547.8	696
548.224	685.4
548.627	670.8
549.03	695.4
549.454	678
549.857	668.6
550.281	670.2
550.684	675.8
551.087	705.4
551.512	685.4
551.915	700
552.34	675.6
552.743	679.8
553.146	679.6
553.571	678.8
553.975	704.6
554.399	677
554.803	737.4
555.207	684.2
555.632	675
556.036	690.4
556.461	666.6
556.865	683.8
557.268	668.4
557.694	679.8
558.098	682
558.502	687
558.927	672.6
559.332	669.8
559.736	679.8
560.162	693.2
560.566	681.4
560.992	687.6
561.396	683.8
561.801	680.6
562.227	678
562.631	679.2
563.036	681.4
563.462	681.4
563.867	675.6
564.272	653.6
564.698	686
565.103	670
565.508	698.8
565.935	676.4
566.34	676
566.745	694.4
567.172	672
567.577	701.2
567.982	697.2
568.409	679.6
568.815	674
569.22	680.2
569.626	685.2
570.053	660.4
570.459	689.6
570.865	685.4
571.292	685.6
571.698	680.2
572.104	663.2
572.531	675
572.937	689.4
573.343	679.2
573.75	671.4
574.177	693.4
574.583	686.8
574.99	671.8
575.396	680.6
575.824	687.6
576.231	681.2
576.637	670.6
577.065	701.8
577.472	673.8
577.879	671
578.286	695
578.714	667.4
579.121	686
579.528	682.8
579.935	681.2
580.364	673.4
580.771	658.6
581.178	670.8
581.585	682
582.014	685.4
582.421	675.4
582.829	671.8
583.236	684.6
583.644	676.6
584.073	673.4
584.481	677.2
584.889	668
585.296	678.2
585.726	679.6
586.134	665.4
586.542	667.6
586.95	695.6
587.358	670
587.787	681.2
588.196	656.8
588.604	674.8
589.012	672.4
589.421	665.8
589.851	668.2
590.259	678.8
590.668	674.2
591.076	720.6
591.485	664.2
591.894	674.4
592.324	687.2
592.733	687.4
593.142	665.2
593.551	669.8
593.96	679.2
594.369	654
594.8	660.6
595.209	675.8
595.618	656.8
596.028	663.2
596.437	660.8
596.847	679.4
597.256	673.6
597.687	674.2
598.097	665.2
598.507	658
598.917	682.6
599.327	682.2
599.736	677.8
600.146	681.4
600.556	677.8
600.988	690
601.398	662.8
601.808	688.8
602.219	654.8
602.629	663.2
603.039	666.4
603.45	712.8
603.86	680.6
604.271	690.6
604.703	678.2
605.114	669.4
605.525	675.4
605.935	680
606.346	703.2
606.757	684.4
607.168	669
607.579	666.8
607.99	687
608.402	672.4
608.813	673.4
609.224	660.8
609.636	676.2
610.047	665.8
610.48	679.6
610.892	689.4
611.303	682.6
611.715	667
612.127	658.8
612.539	666.2
612.95	670.2
613.362	652.4
613.774	658.6
614.186	664.4
614.599	668.6
615.011	679.2
615.423	673.6
615.835	668
616.248	661.6
616.66	676.4
617.073	666.2
617.485	667
617.898	689.2
618.311	676
618.723	667.6
619.136	703.8
619.549	692.4
619.962	697.8
620.375	667.6
620.788	671.2
621.201	669.8
621.614	691.6
622.028	668.6
622.441	679.4
622.854	682
623.268	659.8
623.681	676.2
624.095	667.6
624.509	676.8
624.922	673.4
625.336	663.8
625.728	667.6
626.142	676.6
626.556	687.2
626.97	670.2
627.384	671.6
627.799	667.6
628.213	677.6
628.627	669.2
629.041	660.8
629.456	663.6
629.87	669.6
630.285	673.4
630.699	684.2
631.093	665.6
631.507	679.6
631.922	669
632.337	695.6
632.752	654
633.167	673.8
633.582	663.8
633.997	674.6
634.412	668
634.806	663.4
635.221	651.6
635.637	683.4
636.052	664.4
636.468	659.4
636.883	688.8
637.299	669.6
637.715	648.2
638.109	671.4
638.525	655.6
638.941	688.4
639.357	665
639.773	684.6
640.189	658.8
640.584	666.4
641	663.2
641.416	659.2
641.832	658.6
642.249	666.4
642.665	662
643.06	669.2
643.477	682
643.894	656.4
644.31	665.6
644.727	668.2
645.123	665.8
645.54	661.6
645.957	670
646.374	670
646.77	670
647.187	700.6
647.604	674.2
648.021	648.2
648.439	651.2
648.835	669
649.252	668
649.67	660.6
650.088	661.8
650.484	675.6
650.902	681
651.32	669
651.738	670
652.134	672.4
652.552	697.2
652.971	673.4
653.389	668
653.786	677.6
654.204	691.4
654.622	653.8
655.019	674
655.438	672.2
655.857	672.2
656.275	670
656.673	661.2
657.091	751.8
657.51	660.4
657.908	679.4
658.327	685.6
658.746	657.2
659.144	669.6
659.563	686.4
659.982	670.2
660.38	651.8
660.8	665.4
661.219	675.6
661.617	673
662.037	663.8
662.457	682
662.855	652.2
663.275	706
663.695	672
664.094	659.2
664.514	664.6
664.934	660.4
665.333	673
665.753	654.8
666.152	660.4
666.572	660.4
666.993	686.2
667.392	664.8
667.812	663.4
668.212	654.4
668.632	679.2
669.053	665.8
669.453	671
669.874	668.4
670.273	674.2
670.694	659.8
671.116	679.2
671.515	680.8
671.937	663.8
672.337	660.4
672.758	675.8
673.158	679
673.58	656
673.98	665.8
674.402	680
674.824	664.4
675.224	666.4
675.646	657
676.047	669.2
676.469	668
676.869	674
677.292	670.4
677.693	660.4
678.115	652.4
678.516	670
678.939	671.4
679.34	662
679.762	680
680.164	670.8
680.586	658
680.988	665.6
681.411	695.6
681.812	659
682.236	645.6
682.637	655.4
683.061	656.6
683.462	666.8
683.864	662
684.288	673.6
684.69	652.8
685.114	676.2
685.516	682
685.94	659.8
686.342	673.8
686.766	664.8
687.168	660.8
687.571	693.8
687.995	665.4
688.398	651.4
688.822	657.8
689.225	689.6
689.628	691
690.052	665.2
690.456	678.6
690.88	669
691.284	655.2
691.687	673
692.112	658
692.515	651.6
692.919	659
693.344	676.6
693.747	676.4
694.173	656
694.577	671.6
694.98	664.4
695.406	659.2
695.81	667.8
696.214	671
696.64	667.8
697.044	667.4
697.448	674
697.874	660.6
698.279	661.2
698.684	645.6
699.11	658
699.514	666
699.919	664.6
700.324	661.2
700.75	662.6
701.156	662.4
701.561	677.2
701.987	670.6
702.393	684.4
702.798	678.4
703.203	659.2
703.63	656.2
704.036	656.8
704.442	673
704.847	656.2
705.274	664.4
705.68	671
706.086	681.8
706.492	661.4
706.92	663.6
707.326	668.6
707.732	668.8
708.139	651.6
708.545	657.4
708.973	657.8
709.38	668
709.786	651.6
710.193	681.2
710.6	670.8
711.028	654.8
711.435	665.8
711.842	661.8
712.249	668.2
712.656	665
713.064	678.4
713.492	661.4
713.9	661.6
714.307	667.8
714.715	667.8
715.123	675.6
715.53	666.4
715.938	674
716.367	672.8
716.775	655.4
717.184	650.4
717.592	657.6
718	681.4
718.408	690.2
718.816	707
719.225	673.8
719.633	663.6
720.042	659.6
720.472	665.6
720.881	688.2
721.29	669.2
721.699	656.8
722.108	670.6
722.517	668.2
722.926	666.2
723.335	673.8
723.744	658.8
724.154	670.6
724.563	672.4
724.973	676.2
725.382	669.2
725.792	660.4
726.202	654.8
726.612	687.6
727.022	663.8
727.432	659.4
779.813	662
780.223	718.2
780.634	658.8
781.044	662.4
781.454	663.2
781.865	680.4
782.276	664.6
782.686	670
783.097	662.6
783.508	655.6
783.919	669.6
784.33	681.4
784.741	676
785.152	660.4
785.563	641.4
785.974	659.4
786.386	676.8
786.776	659.2
787.188	657
787.599	644.2
788.011	672.6
788.423	673.4
788.835	648.2
789.247	654
789.659	661.4
790.071	655.2
790.483	712.8
790.874	661.8
791.286	662.8
791.699	664
792.111	661
792.524	665.8
792.937	656
793.349	645.4
793.741	652.4
794.154	653.8
794.567	686
794.98	657
795.393	650.6
795.785	670.4
796.198	647.8
796.612	661.6
797.026	648.4
797.439	650
797.831	650
798.245	647.8
798.659	650.8
799.073	652
799.487	646.4
799.88	659
800.294	663.6
800.708	668.2
801.123	673
801.516	684.2
801.93	645.2
802.345	649.4
802.76	655.2
803.153	674.8
803.568	681.4
803.983	673.8
804.377	672.2
804.792	651
805.207	650
805.601	662.6
806.016	703.6
806.432	655.6
806.826	693.6
807.242	685
807.658	672.2
808.052	661.8
808.468	651.8
808.884	653.4
809.279	659.4
809.695	688
810.111	685.2
810.506	673.4
810.922	679.4
811.339	650
811.734	667
812.151	645.8
812.546	649.4
812.963	650.8
813.38	666
813.776	660.4
814.193	683.4
814.589	657.6
815.006	645.4
815.402	654.8
815.82	654.2
816.237	655.6
816.633	659.4
817.051	647.6
817.448	664.2
817.866	640.8
818.262	688
818.68	665.4
819.077	660
819.495	662.4
819.892	708.8
820.311	659.8
820.708	658.2
821.127	658.2
821.524	676.8
821.943	657.8
822.34	681.6
822.759	662.6
823.157	663.2
823.576	670.2
823.974	667.4
824.393	794.2
824.791	658.4
825.189	647.8
825.609	656
826.007	658.8
826.427	649.2
826.826	660.8
827.246	663.2
827.644	644.8
828.043	668.2
828.463	660
828.862	667.6
829.261	665.8
829.682	651
830.081	676.2
830.502	659
830.901	667.2
831.301	654.8
831.722	652.6
832.121	671.8
832.521	653
832.943	665.6
833.342	657
833.742	649.4
834.164	661
834.564	654.6
834.965	664.6
835.386	660.8
835.787	661.2
836.188	661.2
836.588	669
837.01	665.2
837.411	644.6
837.812	661.2
838.213	673.8
838.636	662.2
839.037	738.8
839.438	663.2
839.84	662.8
840.263	661.8
840.664	669.4
841.066	655
841.468	658.2
841.891	656
842.293	671.4
842.695	668.6
843.098	679.6
843.5	659.6
843.902	670.4
844.326	665.4
844.729	668.6
845.131	669.2
845.534	653.8
845.937	676.4
846.34	678.6
846.764	650.2
847.167	672.6
847.571	656.2
847.974	660
848.377	660.2
848.781	713
849.184	667.2
849.588	658.8
849.992	649.6
850.396	661.8
850.821	686.8
851.225	669.2
851.63	665.8
852.034	670.4
852.438	664.2
852.843	709.2
853.247	651.4
853.652	650.6
854.057	679.2
854.462	666.6
854.867	665.4
855.272	699.6
855.677	666.4
856.082	653.6
856.487	648.6
