#lambda/nm	C1
208.295	552.6
208.67	498.2
209.045	467
209.419	466.4
209.794	699.8
210.169	670
210.544	813.2
210.919	702.4
211.295	678.8
211.67	687.8
212.045	699.8
212.421	679
212.796	737.6
213.172	694.8
213.547	682.4
213.923	686.4
214.299	690.2
214.675	699.6
215.051	690.4
215.427	697.2
215.803	702
216.179	691.4
216.555	679.4
216.932	693
217.308	686.6
217.684	685.6
218.061	689.4
218.438	700.2
218.814	672.4
219.191	682
219.568	683.6
219.945	689.4
220.322	705.2
220.699	690.8
221.076	702
221.453	687
221.83	683.6
222.208	682
222.585	681.2
222.962	700.2
223.34	695
223.717	697.8
224.095	694.2
224.473	703
224.851	682.4
225.229	679.2
225.607	710.6
225.985	685
226.363	691
226.741	689.2
227.119	686
227.497	707.6
227.876	670.6
228.254	706.2
228.633	690.8
229.011	692
229.39	694.6
229.769	687.6
230.148	697.8
230.527	716
230.905	695.2
231.284	691.4
231.664	692.2
232.043	703.4
232.422	706.6
232.801	679
233.181	697
233.56	686.4
233.94	694.6
234.319	674.2
234.699	688.2
235.079	737.2
235.458	736
235.838	702.2
236.218	685
236.598	681.4
236.978	681.6
237.358	683.8
237.738	677.6
238.119	697.4
238.499	675
238.88	687.6
239.26	706.8
239.641	672.6
240.021	683.2
240.402	689
240.783	688.4
241.163	679.8
241.544	691.2
241.925	687.4
242.306	704.8
242.687	682.2
243.069	688.6
243.45	696
243.831	683.6
244.212	683.4
244.594	735.8
244.975	701
245.357	690.4
245.739	679
246.12	691.8
246.502	710.4
246.884	686.6
247.266	676.8
247.648	700.8
248.03	721.4
248.412	693.4
248.794	695.8
249.176	685
249.559	704.8
249.941	687
250.323	677.8
250.706	684.8
251.089	693.8
251.471	695
251.854	694.6
252.237	694
252.62	704.4
253.002	691.6
253.385	685.4
253.769	705.6
254.152	700
254.535	698
254.918	680.2
255.301	683.4
255.685	684.2
256.068	676.6
256.452	710.6
256.835	693.6
257.219	691
257.603	703.2
257.986	685.8
258.37	700.6
258.754	677.6
259.138	693.2
259.522	698.6
259.906	677.2
260.29	694.8
260.675	676.2
261.059	695
261.443	676.8
261.828	694.8
262.212	705
262.597	679.2
262.981	687
263.366	694.2
263.751	691.8
264.136	691.6
264.521	680.8
264.906	681
265.291	702.4
265.676	685.8
266.061	703.6
266.446	708.8
266.831	689.8
267.217	708.6
267.602	689
267.987	680.4
268.373	681.6
268.759	696.2
269.144	689.8
269.53	683.2
269.916	689.2
270.302	678.6
270.688	702.4
271.074	690.4
271.46	703.2
271.846	731.2
272.232	687.6
272.618	684.4
273.004	691.4
273.391	700.6
273.777	710.6
274.164	698.4
274.55	704.2
274.937	701.4
275.324	692
275.71	694.2
276.097	697.6
276.484	679.8
276.871	694.2
277.258	701.2
277.645	673
278.032	687.2
278.419	684.8
278.807	693.6
279.194	677.8
279.581	688.6
279.969	690.6
280.356	686
280.744	684.4
281.131	718.2
281.519	703.6
281.907	690.4
282.295	684.6
282.682	701.6
283.07	693.6
283.458	700
283.846	707.4
284.235	708.4
284.623	699.4
285.011	681.4
285.399	687.6
285.788	688.8
286.176	679.6
286.565	702
286.953	681.4
287.342	686.6
287.731	695
288.119	688.6
288.508	699
288.897	691.8
289.286	674.8
289.675	700.8
290.064	704.8
290.453	694.4
290.821	688.8
291.21	712
291.599	690.2
291.989	695.8
292.378	704.6
292.768	711.6
293.157	697
293.547	706.6
293.936	691.8
294.326	690.4
294.716	696
295.106	683.6
295.496	698.6
295.886	708.8
296.276	684.6
296.666	685.8
297.056	691.8
297.446	675.2
297.836	708.6
298.227	689.6
298.617	702
299.008	706.8
299.398	689.2
299.789	690.6
300.179	692.8
300.57	706.8
300.961	699
301.352	701.4
301.742	707.6
302.133	703.6
302.524	683
302.915	695
303.307	685.8
303.698	704.6
304.089	700.8
304.48	687
304.872	703.6
305.263	687
305.655	674
306.046	698.4
306.438	701.8
306.829	686.4
307.221	709.4
307.613	696.6
308.005	698.2
308.397	705.2
308.789	712.8
309.181	724.2
309.573	715.4
309.965	710.6
310.357	697.2
310.749	707.6
311.142	690.2
311.534	686.2
311.926	704.8
312.319	694.6
312.711	685.4
313.104	716.8
313.497	697.2
313.889	735.2
314.282	710.4
314.675	723.6
315.068	698.2
315.461	705
315.854	737.8
316.247	707.2
316.64	693.2
317.033	687.6
317.405	707.2
317.798	683
318.192	710.2
318.585	681.8
318.979	702.6
319.372	689.4
319.766	689
320.16	702.8
320.553	709.6
320.947	713
321.341	684.8
321.735	687.2
322.129	680.8
322.523	714
322.917	689.2
323.311	701.2
323.705	692.6
324.099	701.8
324.494	707.6
324.888	699
325.282	699.2
325.677	712.4
326.071	698
326.466	709.4
326.861	702.2
327.255	712.8
327.65	715.6
328.045	719.2
328.44	698
328.835	699.2
329.23	680.8
329.625	724.2
330.02	691.8
330.415	722.8
330.81	693.6
331.206	699.4
331.601	685.2
331.996	706.2
332.37	715.4
332.766	687.4
333.161	722.6
333.557	695.6
333.953	693.4
334.348	1102.6
334.744	701.8
335.14	694.6
335.536	689.4
335.932	714
336.328	693
336.724	707.6
337.12	703.6
337.516	701.2
337.913	693.2
338.309	712.2
338.705	695.2
339.102	695
339.498	681.2
339.895	704.4
340.291	691.6
340.688	702.2
341.085	694
341.481	689.2
341.878	689
342.275	721
342.672	684.6
343.069	692.4
343.466	673.8
343.842	696.4
344.239	683.2
344.636	698
345.033	678
345.431	688
345.828	696.6
346.225	690.2
346.623	731.2
347.02	696.4
347.418	704.8
347.816	714.6
348.213	679
348.611	692
349.009	685.6
349.407	697
349.805	679.4
350.203	680.4
350.601	707.2
350.999	691.8
351.397	758.8
351.795	687.8
352.193	702.6
352.57	699.2
352.969	709.4
353.367	685.2
353.766	683
354.164	689
354.563	703.8
354.961	696.4
355.36	690.6
355.759	692.8
356.158	684
356.557	689.2
356.956	679.8
357.355	681.6
357.754	686.6
358.153	690
358.552	721.6
358.951	686.4
359.35	707.6
359.75	681.8
360.149	678.2
360.527	677.4
360.926	674.6
361.326	676.6
361.726	680.2
362.125	669
362.525	691.4
362.925	685.2
363.325	692.4
363.724	690.8
364.124	680
364.524	675.4
364.924	681
365.324	697.2
365.725	673.8
366.125	690.6
366.525	690
366.904	679.6
367.304	669.2
367.705	701.8
368.105	699.6
368.506	683
368.906	692.4
369.307	687.4
369.708	688.6
370.108	675.2
370.509	699.6
370.91	679.2
371.311	693.6
371.712	689.6
372.113	672
372.514	672.8
372.894	685.2
373.295	670.2
373.696	696.2
374.097	697.8
374.499	725.8
374.9	681.4
375.301	679
375.703	686.4
376.105	675.6
376.506	695.4
376.908	690
377.309	683.4
377.711	691.8
378.113	683.2
378.493	681.6
378.895	684.2
379.297	694.8
379.699	671.6
380.102	685.8
380.504	693.2
380.906	682
381.308	711
381.71	683.2
382.113	694
382.515	682.6
382.918	688.2
383.299	688.6
383.701	693.6
384.104	691.8
384.507	668.8
384.909	689.6
385.312	679.4
385.715	675
386.118	679.2
386.521	676.2
386.924	695
387.327	677.8
387.709	668.6
388.112	669.6
388.515	695.2
388.918	682.8
389.322	687.2
389.725	678.8
390.129	708.2
390.532	700
390.936	683.4
391.339	679.4
391.743	690.2
392.125	672
392.529	697.2
392.933	706
393.337	681.4
393.74	683.2
394.144	687.8
394.548	683.6
394.953	683.8
395.357	689.6
395.761	676.2
396.144	690.8
396.548	689.8
396.952	690.8
397.357	681
397.761	678.8
398.166	690.2
398.57	684
398.975	670
399.379	686.6
399.763	739.8
400.168	685
400.572	687.8
400.977	678
401.382	704.4
401.787	695.6
402.192	704.6
402.597	708.6
403.002	666
403.386	695.4
403.791	705.2
404.197	673.8
404.602	697.4
405.007	692.8
405.413	684
405.818	692.2
406.224	677.2
406.608	674.8
407.014	675.6
407.42	704.8
407.825	672.8
408.231	698.4
408.637	682.2
409.043	703.8
409.449	680.6
409.834	670.6
410.24	681
410.646	691.6
411.052	693.2
411.458	694.6
411.865	691.2
412.271	698.8
412.677	684.6
413.062	692.4
413.469	681.8
413.875	715.8
414.282	698.8
414.689	693.4
415.095	697.6
415.502	683
415.888	687.6
416.294	669
416.701	735.4
417.108	683.4
417.515	695.8
417.923	684
418.33	703.6
418.715	693.8
419.123	680.8
419.53	684.4
419.937	685.4
420.345	699.6
420.752	681
421.16	700.8
421.546	683.6
421.953	694
422.361	675
422.769	683.8
423.177	684.4
423.585	704.6
423.992	708
424.379	691
424.787	697
425.195	714.4
425.603	690.6
426.011	702
426.419	701.8
426.806	690.6
427.214	686.4
427.623	700.6
428.031	701.6
428.44	693.6
428.848	697
429.235	706.8
429.644	691
430.053	689.8
430.461	707
430.87	719.8
431.279	700.6
431.666	676.6
432.075	688
432.484	696.6
432.893	681.2
433.302	713.4
433.711	750
434.099	696.4
434.508	695.8
434.918	676.4
435.327	698.4
435.737	702.6
436.125	695.6
436.534	699.8
436.944	702.4
437.353	710.4
437.763	712.2
438.173	688.6
438.561	716.4
438.971	690.6
439.381	693.8
439.791	712.6
440.201	685.8
440.589	713.2
440.999	711
441.409	707.8
441.819	690.8
442.23	719.6
442.619	721.6
443.029	714.4
443.439	718
443.85	727.4
444.26	725.8
444.649	717.8
445.06	716.4
445.471	708.2
445.881	719.6
446.292	719.8
446.682	746.8
447.092	710.4
447.503	774.2
447.914	725.8
448.325	727.4
448.715	725
449.126	722.2
449.537	725.8
449.948	717.4
450.338	729
450.75	728.8
451.161	723.6
451.572	732.2
451.984	722.8
452.374	711.4
452.786	727.4
453.197	736.4
453.609	737.8
453.999	712.8
454.411	719.2
454.823	743.6
455.235	729.6
455.647	732.4
456.037	731.8
456.449	719.4
456.862	738.6
457.274	741.6
457.665	728.2
458.077	742
458.489	767.6
458.902	728.8
459.293	733.4
459.705	730.6
460.118	726.6
460.53	736.4
460.921	732
461.334	735.2
461.747	741.4
462.16	754
462.551	740.2
462.964	746.6
463.377	716.4
463.79	725.8
464.182	745
464.595	730
465.008	736
465.421	734.2
465.813	731.8
466.226	735.4
466.64	735
467.053	788
467.445	745.2
467.859	755.2
468.272	747.8
468.686	758
469.078	739
469.492	736.4
469.906	748.4
470.298	739
470.712	725.6
471.126	805.8
471.54	721
471.933	726.2
472.347	731.6
472.761	728.8
473.175	725.8
473.568	733.6
473.982	731.4
474.397	746.8
474.79	733.6
475.204	751.4
475.619	733
476.033	739.2
476.426	737.6
476.841	736.2
477.256	772.4
477.649	728
478.064	724.4
478.479	728.2
478.872	726.2
479.287	711.4
479.702	729.8
480.118	729.6
480.511	735.6
480.927	727.2
481.342	719.2
481.736	730.8
482.151	729.8
482.566	737
482.96	734
483.376	737
483.792	730.4
484.186	742.2
484.602	715.8
485.017	739.4
485.412	729.4
485.827	739.4
486.243	728.4
486.638	766.8
487.054	740.2
487.47	748.8
487.865	723.8
488.281	719
488.697	723.2
489.092	729.8
489.508	718.4
489.925	738.4
490.32	714.4
490.736	736
491.153	738
491.548	729.4
491.964	739.4
492.381	704.4
492.776	741.4
493.193	733.4
493.61	741.8
494.006	732.6
494.422	737.4
494.84	717.4
495.235	735
495.652	729
496.069	730.2
496.465	718.2
496.883	722
497.3	751.4
497.696	719
498.113	728.2
498.509	710
498.927	706
499.344	711.8
499.741	712.4
500.158	733.4
500.576	736.2
500.973	715.8
501.39	716.6
501.787	712.8
502.205	718
502.623	704.2
503.02	707.4
503.438	705.8
503.856	709
504.253	718.4
504.671	720.6
505.068	704.2
505.486	708.4
505.905	737.4
506.302	723
506.72	734.2
507.118	708.4
507.536	716.6
507.955	709.6
508.352	706.6
508.771	723
509.169	720.6
509.587	701
510.006	709.4
510.404	691.2
510.823	707.6
511.221	706.6
511.64	695.4
512.038	732.8
512.457	705
512.877	700
513.275	706.8
513.694	705.8
514.092	705.4
514.512	707.4
514.91	696
515.33	698.2
515.749	707.6
516.148	708.8
516.568	710
516.966	705
517.386	703.2
517.785	704.4
518.205	695.4
518.603	694.6
519.024	698.2
519.444	706.6
519.843	713.4
520.263	715.8
520.662	712.6
521.082	701
521.481	704.2
521.902	705.8
522.301	701.8
522.722	701
523.121	696.2
523.542	701.4
523.963	698.2
524.362	711.2
524.783	702
525.183	690.6
525.604	700.4
526.003	693.6
526.425	689.4
526.824	699.8
527.246	710.2
527.646	711
528.067	700.2
528.467	692.6
528.888	694
529.289	691.4
529.71	705.6
530.11	687
530.532	694.2
530.932	690.8
531.354	687.4
531.755	730.8
532.176	708.6
532.577	693.2
532.999	699.8
533.4	687.4
533.822	711.8
534.223	698.6
534.645	687.2
535.046	702.2
535.468	695.6
535.869	716.2
536.292	676
536.693	730
537.115	698.2
537.516	690.6
537.939	685.4
538.34	712
538.742	708.2
539.165	698.6
539.566	695.2
539.989	684.4
540.391	689
540.814	695
541.216	698
541.639	686.6
542.041	690.2
542.464	687.6
542.866	689.4
543.268	677.6
543.691	698
544.093	696.2
544.517	711.6
544.919	681.4
545.343	711.8
545.745	680
546.147	698.6
546.571	677.8
546.974	676
547.398	688.6
547.8	697
548.224	683.4
548.627	677.8
549.03	700.4
549.454	679.8
549.857	669.8
550.281	667
550.684	679.8
551.087	686.6
551.512	690.6
551.915	698.2
552.34	688.2
552.743	677.6
553.146	689
553.571	680.4
553.975	696.8
554.399	676
554.803	737.4
555.207	675.2
555.632	676.2
556.036	688.6
556.461	679
556.865	688.2
557.268	685.6
557.694	684
558.098	697.6
558.502	685.8
558.927	680.8
559.332	684.8
559.736	681.6
560.162	690
560.566	684.4
560.992	692.2
561.396	681.6
561.801	678.6
562.227	677.2
562.631	685.4
563.036	680.6
563.462	688.8
563.867	689.4
564.272	669
564.698	687.2
565.103	671.4
565.508	698.2
565.935	681.2
566.34	679.2
566.745	692.6
567.172	673.4
567.577	696.2
567.982	696.4
568.409	685.8
568.815	665
569.22	683.6
569.626	683.8
570.053	665.2
570.459	680.4
570.865	682.2
571.292	687.2
571.698	690.8
572.104	668.6
572.531	676.2
572.937	679
573.343	670.4
573.75	676.8
574.177	674.4
574.583	683.6
574.99	672.6
575.396	688.8
575.824	679
576.231	681.4
576.637	670.4
577.065	703.8
577.472	674.8
577.879	682.8
578.286	683
578.714	679
579.121	669.8
579.528	678
579.935	684.4
580.364	679.2
580.771	657.8
581.178	667.4
581.585	675
582.014	685.6
582.421	663.6
582.829	676.2
583.236	679.4
583.644	668.6
584.073	671
584.481	677.8
584.889	666.2
585.296	686.2
585.726	680.8
586.134	665.4
586.542	662.2
586.95	689.8
587.358	658.6
587.787	680
588.196	654.6
588.604	674.8
589.012	671.8
589.421	657.2
589.851	657.6
590.259	680.2
590.668	668.2
591.076	713.2
591.485	667.8
591.894	670.8
592.324	693
592.733	688.2
593.142	659.6
593.551	670.6
593.96	678.2
594.369	666.2
594.8	665.2
595.209	667.4
595.618	655.4
596.028	661.4
596.437	658.4
596.847	674.6
597.256	681.6
597.687	673.4
598.097	676.8
598.507	652.8
598.917	680.2
599.327	672.4
599.736	671
600.146	685
600.556	674.8
600.988	690.6
601.398	662.6
601.808	681.8
602.219	666.6
602.629	672.8
603.039	670.6
603.45	703.2
603.86	664.8
604.271	695.6
604.703	668.8
605.114	660.4
605.525	670.8
605.935	676.2
606.346	690.8
606.757	680
607.168	679.6
607.579	665.4
607.99	681.4
608.402	666
608.813	676
609.224	659
609.636	659.8
610.047	662.4
610.48	674.4
610.892	680
611.303	682.8
611.715	667
612.127	658.6
612.539	663.6
612.95	674.2
613.362	657.4
613.774	658.6
614.186	657.4
614.599	664.2
615.011	681.8
615.423	667.6
615.835	662.4
616.248	653.8
616.66	678.8
617.073	657.4
617.485	665.6
617.898	671.8
618.311	668.6
618.723	666.2
619.136	696.4
619.549	675.8
619.962	698.6
620.375	666.2
620.788	673
621.201	666.4
621.614	679.2
622.028	668.8
622.441	673
622.854	681
623.268	673.8
623.681	681.2
624.095	671.6
624.509	671.8
624.922	682.8
625.336	663
625.728	674
626.142	676.8
626.556	694.8
626.97	681.6
627.384	670.4
627.799	674.4
628.213	677.6
628.627	664.8
629.041	670.2
629.456	661
629.87	672.6
630.285	682.6
630.699	677
631.093	671.6
631.507	676.4
631.922	672
632.337	681.2
632.752	658.2
633.167	671
633.582	668.6
633.997	665.2
634.412	654.6
634.806	676.8
635.221	656.8
635.637	676.8
636.052	656.2
636.468	658.2
636.883	687.6
637.299	665.6
637.715	650
638.109	656
638.525	662.2
638.941	686.4
639.357	667
639.773	682.6
640.189	659.8
640.584	663.2
641	671.8
641.416	655
641.832	654.2
642.249	663
642.665	664.2
643.06	681.2
643.477	683.2
643.894	654.8
644.31	668.4
644.727	659.4
645.123	669
645.54	656.2
645.957	667.8
646.374	692
646.77	666.8
647.187	700.6
647.604	673
648.021	647.6
648.439	668.6
648.835	677.6
649.252	665.4
649.67	659.2
650.088	669.8
650.484	666.8
650.902	671.4
651.32	668.4
651.738	658.8
652.134	670
652.552	685.8
652.971	680.6
653.389	669.4
653.786	681.4
654.204	687
654.622	664.8
655.019	668.8
655.438	675.8
655.857	672
656.275	670.8
656.673	664.8
657.091	753
657.51	663.8
657.908	672
658.327	681.6
658.746	659.8
659.144	668.8
659.563	675.8
659.982	675.6
660.38	655.8
660.8	670.8
661.219	677.6
661.617	672.6
662.037	669.8
662.457	670.4
662.855	644.2
663.275	703
663.695	670
664.094	658.4
664.514	672.2
664.934	666.6
665.333	677.2
665.753	661
666.152	663.4
666.572	654.4
666.993	682.4
667.392	651.2
667.812	669.8
668.212	665.2
668.632	674.8
669.053	662.8
669.453	679.4
669.874	673.8
670.273	678.2
670.694	657.6
671.116	684
671.515	669.4
671.937	660.6
672.337	672.2
672.758	667.8
673.158	684.4
673.58	648.4
673.98	671
674.402	678
674.824	664.2
675.224	656.2
675.646	649.8
676.047	657
676.469	662.2
676.869	673.6
677.292	671.2
677.693	659.4
678.115	664
678.516	669.8
678.939	670.4
679.34	663
679.762	683.4
680.164	667.6
680.586	652.8
680.988	673.6
681.411	691.2
681.812	657.6
682.236	658.8
682.637	657.4
683.061	663.2
683.462	673
683.864	665.8
684.288	666.8
684.69	649.2
685.114	676.4
685.516	677
685.94	658.4
686.342	682
686.766	661.6
687.168	662.6
687.571	690.4
687.995	668
688.398	658.2
688.822	661.2
689.225	681.2
689.628	682.4
690.052	660.6
690.456	669
690.88	666.8
691.284	649.4
691.687	675.4
692.112	649.6
692.515	650
692.919	665.2
693.344	665.6
693.747	663.6
694.173	653.4
694.577	684.2
694.98	666.6
695.406	654.8
695.81	671.8
696.214	668.4
696.64	669
697.044	670.4
697.448	682.2
697.874	670
698.279	662.4
698.684	654.2
699.11	656.2
699.514	669.2
699.919	663.2
700.324	660
700.75	669.6
701.156	661.6
701.561	674
701.987	667.8
702.393	676
702.798	675.8
703.203	665.6
703.63	665.4
704.036	672
704.442	667.4
704.847	652.4
705.274	660.2
705.68	674.6
706.086	677
706.492	655.8
706.92	653
707.326	678.8
707.732	665.2
708.139	655.8
708.545	657.2
708.973	660.2
709.38	662.8
709.786	656.8
710.193	668.8
710.6	670.2
711.028	657
711.435	667.6
711.842	668.8
712.249	664.6
712.656	664.2
713.064	675.4
713.492	655
713.9	662
714.307	669.4
714.715	665.2
715.123	668.2
715.53	665.8
715.938	668.4
716.367	671.2
716.775	659.8
717.184	659.8
717.592	661.8
718	669.8
718.408	702.4
718.816	712.6
719.225	665.4
719.633	659.6
720.042	657
720.472	656.6
720.881	683.2
721.29	659.2
721.699	651
722.108	675
722.517	670.6
722.926	656.4
723.335	670.4
723.744	659.4
724.154	663.6
724.563	667.6
724.973	670.4
725.382	665
725.792	659.2
726.202	663.2
726.612	690.2
727.022	662
727.432	659.6
779.813	665.8
780.223	711.6
780.634	668.6
781.044	651.6
781.454	667.6
781.865	684
782.276	655.2
782.686	669.2
783.097	666
783.508	665.8
783.919	657.6
784.33	675
784.741	681
785.152	659
785.563	654.2
785.974	657.8
786.386	679.4
786.776	667.4
787.188	663.2
787.599	648.2
788.011	663.4
788.423	661.4
788.835	658
789.247	646.8
789.659	653.6
790.071	657.4
790.483	710.2
790.874	658
791.286	671.4
791.699	650
792.111	666
792.524	668.8
792.937	664
793.349	645.6
793.741	659
794.154	653.4
794.567	685
794.98	661
795.393	648.6
795.785	674.4
796.198	665.2
796.612	670.8
797.026	657.6
797.439	645.2
797.831	654.6
798.245	649.6
798.659	658
799.073	650.2
799.487	658.4
799.88	665.2
800.294	659.4
800.708	675.4
801.123	672.2
801.516	675.4
801.93	656.4
802.345	657.8
802.76	664.2
803.153	678.2
803.568	677.4
803.983	677
804.377	668.2
804.792	651
805.207	644.8
805.601	666.2
806.016	691.6
806.432	657
806.826	699
807.242	681.8
807.658	666.6
808.052	661.8
808.468	659.4
808.884	656.2
809.279	658.6
809.695	677.4
810.111	676.8
810.506	652.8
810.922	679.6
811.339	654
811.734	666.4
812.151	656.4
812.546	652.8
812.963	656.6
813.38	672.2
813.776	656.2
814.193	692.2
814.589	659.2
815.006	655.2
815.402	664
815.82	653
816.237	670.2
816.633	662.6
817.051	662.8
817.448	667
817.866	646.2
818.262	690.4
818.68	656.8
819.077	654.8
819.495	651.4
819.892	708.8
820.311	657.4
820.708	662
821.127	656
821.524	677
821.943	662.2
822.34	679.8
822.759	660.8
823.157	657.2
823.576	687
823.974	673.4
824.393	798.8
824.791	653.4
825.189	646.8
825.609	654.6
826.007	652.6
826.427	645
826.826	655.8
827.246	657
827.644	648
828.043	671
828.463	660
828.862	669.2
829.261	670.6
829.682	649
830.081	668.4
830.502	650.6
830.901	663
831.301	648.2
831.722	640.4
832.121	660.4
832.521	660.2
832.943	655.4
833.342	664.6
833.742	653.6
834.164	659.6
834.564	647.4
834.965	655.8
835.386	657.8
835.787	664.4
836.188	659.6
836.588	659.4
837.01	649.4
837.411	644
837.812	670.4
838.213	674.8
838.636	657
839.037	733.6
839.438	670.6
839.84	664.2
840.263	672
840.664	662.8
841.066	659
841.468	670
841.891	655.6
842.293	675.8
842.695	671
843.098	665.8
843.5	661.4
843.902	669.4
844.326	661.2
844.729	661
845.131	671.2
845.534	658.8
845.937	675.6
846.34	676.4
846.764	648.4
847.167	664.8
847.571	643.6
847.974	658.8
848.377	654.6
848.781	715.2
849.184	667.8
849.588	655.2
849.992	653.8
850.396	663
850.821	680.4
851.225	659
851.63	656.6
852.034	673.8
852.438	661.2
852.843	801.2
853.247	650.4
853.652	658
854.057	680.8
854.462	669
854.867	670.8
855.272	691.4
855.677	673
856.082	652.8
856.487	651.8
