#lambda/nm	C1
208.295	560.4
208.67	498.4
209.045	467
209.419	466.6
209.794	688.4
210.169	671.6
210.544	795.8
210.919	693.6
211.295	674.2
211.67	687.8
212.045	687.6
212.421	686.8
212.796	730
213.172	687
213.547	676.2
213.923	685.4
214.299	680.4
214.675	696
215.051	687.2
215.427	692.8
215.803	696.4
216.179	690.6
216.555	675.8
216.932	694.4
217.308	681.8
217.684	679.4
218.061	691.8
218.438	693.8
218.814	675.6
219.191	688
219.568	677.6
219.945	677.4
220.322	693.2
220.699	691.2
221.076	684.4
221.453	684.8
221.83	674.2
222.208	686.2
222.585	684.8
222.962	691.6
223.34	688.8
223.717	683
224.095	686.8
224.473	683.8
224.851	686
225.229	675
225.607	697.2
225.985	674.8
226.363	689.4
226.741	691.8
227.119	677.2
227.497	704.2
227.876	673.4
228.254	694.6
228.633	696.2
229.011	693
229.39	679.6
229.769	684
230.148	699.8
230.527	705
230.905	688
231.284	694.6
231.664	682.8
232.043	705.6
232.422	688.8
232.801	680.6
233.181	684
233.56	682.4
233.94	687.4
234.319	671
234.699	680
235.079	727.6
235.458	723.6
235.838	708.2
236.218	669.8
236.598	668.2
236.978	672.8
237.358	673.4
237.738	676.8
238.119	691.6
238.499	667.4
238.88	675.4
239.26	702.6
239.641	676
240.021	682.6
240.402	682
240.783	677.8
241.163	682.6
241.544	689.2
241.925	688.2
242.306	690.4
242.687	674.6
243.069	685
243.45	688
243.831	681.8
244.212	678.4
244.594	722.8
244.975	692.8
245.357	686
245.739	676
246.12	683.2
246.502	699.2
246.884	674.6
247.266	689.2
247.648	689.8
248.03	708.4
248.412	695.4
248.794	696.8
249.176	674
249.559	694
249.941	681
250.323	668.8
250.706	673
251.089	685.4
251.471	691
251.854	680.2
252.237	682.2
252.62	698.6
253.002	690
253.385	687.6
253.769	700.6
254.152	688.4
254.535	695.6
254.918	682.4
255.301	685.2
255.685	677.4
256.068	673.4
256.452	715.6
256.835	692.4
257.219	695.2
257.603	700.8
257.986	675.8
258.37	696.2
258.754	675.6
259.138	694.2
259.522	707
259.906	690.4
260.29	694
260.675	690.2
261.059	683.6
261.443	677.4
261.828	692.8
262.212	698.4
262.597	673.8
262.981	684.6
263.366	697.2
263.751	687.6
264.136	679.2
264.521	681.4
264.906	673
265.291	703.4
265.676	682.4
266.061	685
266.446	711.8
266.831	688.8
267.217	716.4
267.602	694
267.987	686
268.373	678.4
268.759	700.4
269.144	697.4
269.53	680.6
269.916	687.6
270.302	684.6
270.688	692.8
271.074	683.4
271.46	703.8
271.846	724.6
272.232	690.6
272.618	684.8
273.004	685.8
273.391	694.8
273.777	696.2
274.164	687.4
274.55	708
274.937	690
275.324	678.6
275.71	698
276.097	696.4
276.484	680.2
276.871	684
277.258	686.8
277.645	668
278.032	688.6
278.419	685.6
278.807	693.6
279.194	667.6
279.581	686.4
279.969	694.6
280.356	691.6
280.744	692.8
281.131	710.6
281.519	699
281.907	682
282.295	686.2
282.682	701.4
283.07	694.6
283.458	696
283.846	704.4
284.235	700.8
284.623	699.8
285.011	673.2
285.399	691.8
285.788	694.2
286.176	683
286.565	704.2
286.953	680.2
287.342	688.4
287.731	682.2
288.119	675
288.508	686.8
288.897	691.8
289.286	678
289.675	684.6
290.064	704.2
290.453	681.6
290.821	685.8
291.21	703.6
291.599	689.4
291.989	677.8
292.378	702.4
292.768	707.4
293.157	700.8
293.547	701.4
293.936	682.6
294.326	679.8
294.716	699
295.106	685
295.496	704.2
295.886	705.6
296.276	689.4
296.666	678.4
297.056	681.2
297.446	681.6
297.836	710.2
298.227	685.8
298.617	689.2
299.008	703.2
299.398	685.8
299.789	689.4
300.179	694.2
300.57	708.8
300.961	686.4
301.352	682.8
301.742	703
302.133	691.8
302.524	679
302.915	685.6
303.307	667.4
303.698	697.4
304.089	689.6
304.48	687
304.872	697.2
305.263	692.4
305.655	674.2
306.046	689.6
306.438	703.6
306.829	681.6
307.221	700
307.613	690.6
308.005	701.8
308.397	708.8
308.789	716.2
309.181	721.2
309.573	708.2
309.965	706.4
310.357	682.4
310.749	701.2
311.142	683.8
311.534	679.2
311.926	707.2
312.319	683.4
312.711	676.4
313.104	709.2
313.497	687.4
313.889	731.2
314.282	712.8
314.675	716.4
315.068	692.4
315.461	699.8
315.854	723.8
316.247	692.4
316.64	686.8
317.033	684
317.405	703.8
317.798	691.4
318.192	700.6
318.585	687.8
318.979	699.2
319.372	686
319.766	689
320.16	700.4
320.553	710.6
320.947	714.4
321.341	681.2
321.735	688.2
322.129	674.2
322.523	706
322.917	684
323.311	704.2
323.705	695
324.099	697.2
324.494	711.2
324.888	699.2
325.282	686.4
325.677	711.4
326.071	700.4
326.466	707.4
326.861	687.8
327.255	707.4
327.65	699.2
328.045	706
328.44	683.6
328.835	694.6
329.23	680.2
329.625	713.8
330.02	686.8
330.415	712.2
330.81	693.4
331.206	697.2
331.601	687.8
331.996	695.8
332.37	716.4
332.766	674.6
333.161	712.4
333.557	681.2
333.953	689.6
334.348	1107.6
334.744	692.2
335.14	680.4
335.536	693
335.932	705.2
336.328	685
336.724	699
337.12	683.6
337.516	691.6
337.913	679.4
338.309	699
338.705	687.4
339.102	702.2
339.498	677.6
339.895	703
340.291	687
340.688	704.6
341.085	682.2
341.481	689
341.878	685.4
342.275	714.8
342.672	674.8
343.069	688.4
343.466	672
343.842	699.6
344.239	683.8
344.636	676.4
345.033	671.6
345.431	677.8
345.828	690.8
346.225	683.8
346.623	728
347.02	684
347.418	697.6
347.816	710.8
348.213	681.8
348.611	689.8
349.009	683.8
349.407	695.8
349.805	678
350.203	669.2
350.601	699.8
350.999	686.8
351.397	736.4
351.795	686.2
352.193	689
352.57	702.4
352.969	698.8
353.367	672.6
353.766	676.4
354.164	678.6
354.563	696.6
354.961	684.8
355.36	685
355.759	688
356.158	680.6
356.557	681.6
356.956	678.8
357.355	674.4
357.754	697.8
358.153	688.8
358.552	720.6
358.951	673.6
359.35	694.6
359.75	687.2
360.149	682.2
360.527	668.6
360.926	674
361.326	691.2
361.726	685
362.125	676.6
362.525	694
362.925	678.4
363.325	689.8
363.724	683.4
364.124	677.8
364.524	671.2
364.924	680.8
365.324	695.6
365.725	671.2
366.125	689.6
366.525	686.2
366.904	681
367.304	661
367.705	703.8
368.105	699.4
368.506	678.6
368.906	683.8
369.307	676.2
369.708	696.6
370.108	667.6
370.509	701
370.91	677.8
371.311	686.6
371.712	680.4
372.113	683.6
372.514	673
372.894	676
373.295	683.8
373.696	696
374.097	694.2
374.499	714.8
374.9	690
375.301	674.8
375.703	679
376.105	674.8
376.506	687.8
376.908	691.6
377.309	679.4
377.711	686.4
378.113	671
378.493	680.8
378.895	667.8
379.297	686
379.699	663.2
380.102	674.2
380.504	688.2
380.906	675
381.308	707.2
381.71	674.8
382.113	690
382.515	676.8
382.918	692.4
383.299	677.8
383.701	692.6
384.104	691
384.507	662.8
384.909	680.8
385.312	667.2
385.715	669.2
386.118	673.6
386.521	671.8
386.924	692.6
387.327	676.8
387.709	664.6
388.112	664.2
388.515	681.6
388.918	679.6
389.322	690.2
389.725	673.8
390.129	708.6
390.532	686.4
390.936	672.8
391.339	681.4
391.743	679
392.125	678.8
392.529	682.4
392.933	690.6
393.337	686.6
393.74	677.8
394.144	684.4
394.548	672.6
394.953	688
395.357	692.6
395.761	667.2
396.144	680.6
396.548	678.2
396.952	689.4
397.357	681.6
397.761	671.2
398.166	677.8
398.57	683.8
398.975	664.4
399.379	695
399.763	739.4
400.168	684.8
400.572	682.2
400.977	685.6
401.382	704.4
401.787	690.2
402.192	704.4
402.597	692
403.002	670.4
403.386	692
403.791	709.8
404.197	672
404.602	684.8
405.007	672.8
405.413	672
405.818	680
406.224	675.2
406.608	675.6
407.014	664.8
407.42	701.2
407.825	674
408.231	691
408.637	680.8
409.043	687.2
409.449	683.2
409.834	680
410.24	687
410.646	691.6
411.052	692.8
411.458	682.4
411.865	687.6
412.271	699.8
412.677	688
413.062	698.2
413.469	676
413.875	714.4
414.282	693.2
414.689	692.4
415.095	690.8
415.502	681.8
415.888	692.6
416.294	669
416.701	727.2
417.108	679.8
417.515	693
417.923	680.6
418.33	710.4
418.715	693
419.123	681.2
419.53	681
419.937	683.4
420.345	704.2
420.752	678.8
421.16	712.6
421.546	685
421.953	698.2
422.361	673
422.769	682.6
423.177	673
423.585	715.4
423.992	702.6
424.379	696.4
424.787	696.2
425.195	713
425.603	676.8
426.011	700
426.419	696.6
426.806	672.6
427.214	687.8
427.623	690
428.031	699.6
428.44	686.6
428.848	694.4
429.235	704
429.644	681.2
430.053	683
430.461	702
430.87	709
431.279	700.2
431.666	679.4
432.075	681.8
432.484	692.4
432.893	685.8
433.302	709
433.711	749.2
434.099	692.4
434.508	672.8
434.918	673.8
435.327	697.4
435.737	691
436.125	685
436.534	697
436.944	692.6
437.353	698.8
437.763	709.8
438.173	676.4
438.561	704.4
438.971	669
439.381	683.6
439.791	699.8
440.201	671.8
440.589	699
440.999	708.6
441.409	707.2
441.819	688.8
442.23	720
442.619	703.8
443.029	703
443.439	713.2
443.85	722.6
444.26	728.2
444.649	709
445.06	705
445.471	693
445.881	711.4
446.292	732
446.682	732.8
447.092	698.8
447.503	761.6
447.914	721.4
448.325	718.4
448.715	710.6
449.126	703.6
449.537	717.4
449.948	712.6
450.338	708.2
450.75	729.4
451.161	725
451.572	717.6
451.984	710
452.374	692.2
452.786	718.8
453.197	717.4
453.609	732
453.999	706.4
454.411	706.8
454.823	729.6
455.235	722.2
455.647	709.6
456.037	722.4
456.449	705
456.862	720.2
457.274	721.6
457.665	703
458.077	729.8
458.489	762.6
458.902	718.8
459.293	721.6
459.705	720.8
460.118	717.4
460.53	727.4
460.921	725.4
461.334	729.6
461.747	727.8
462.16	737.6
462.551	743.4
462.964	734.2
463.377	709.4
463.79	714.2
464.182	737.6
464.595	714.6
465.008	730.8
465.421	724.8
465.813	712.4
466.226	725.4
466.64	715.4
467.053	770.8
467.445	745
467.859	747.4
468.272	734.2
468.686	737.6
469.078	725.8
469.492	725.2
469.906	737.4
470.298	728
470.712	726.8
471.126	785
471.54	707.8
471.933	718
472.347	718.4
472.761	716.6
473.175	716.4
473.568	726.6
473.982	725.8
474.397	724.8
474.79	722.4
475.204	738.8
475.619	732.8
476.033	735.2
476.426	737.2
476.841	719.4
477.256	755.4
477.649	721.8
478.064	720.6
478.479	718.6
478.872	721
479.287	703.4
479.702	719
480.118	725.2
480.511	720
480.927	723.4
481.342	714.6
481.736	731.6
482.151	715.4
482.566	738.8
482.96	729
483.376	733
483.792	709.4
484.186	726.2
484.602	721.2
485.017	726.2
485.412	716.8
485.827	734.6
486.243	720.8
486.638	753.8
487.054	735.8
487.47	739.6
487.865	722.6
488.281	724.2
488.697	722.8
489.092	715.8
489.508	715
489.925	722.4
490.32	717.4
490.736	727.6
491.153	726.2
491.548	720.2
491.964	732
492.381	703.4
492.776	724.2
493.193	716
493.61	728.6
494.006	724.2
494.422	730
494.84	708.6
495.235	730.2
495.652	722.4
496.069	710.4
496.465	710.8
496.883	716.2
497.3	744.6
497.696	709.4
498.113	730.6
498.509	696
498.927	705.6
499.344	702.8
499.741	698.2
500.158	721.6
500.576	725
500.973	727.2
501.39	699.6
501.787	700
502.205	716.6
502.623	707
503.02	700.8
503.438	700.4
503.856	702.2
504.253	703.2
504.671	712.6
505.068	703
505.486	707
505.905	733.6
506.302	716.2
506.72	720
507.118	704.6
507.536	713.8
507.955	699.4
508.352	704
508.771	721.2
509.169	711.2
509.587	704.6
510.006	700.6
510.404	683.8
510.823	697.6
511.221	699
511.64	697.8
512.038	714.6
512.457	705.6
512.877	699.8
513.275	695.2
513.694	689
514.092	692.2
514.512	696.4
514.91	691.4
515.33	703.4
515.749	704.6
516.148	709.2
516.568	703.6
516.966	690.6
517.386	694
517.785	701.2
518.205	683.8
518.603	687.4
519.024	693.4
519.444	701.4
519.843	710.4
520.263	699.2
520.662	702.8
521.082	693.6
521.481	696
521.902	695.8
522.301	704.6
522.722	699.8
523.121	697.4
523.542	690
523.963	698.6
524.362	694.2
524.783	690.4
525.183	704.4
525.604	705
526.003	687.2
526.425	688.6
526.824	698.6
527.246	711
527.646	701.4
528.067	694.6
528.467	694.4
528.888	684.8
529.289	686.6
529.71	691.8
530.11	696
530.532	687.8
530.932	687.2
531.354	674.8
531.755	727.8
532.176	704.6
532.577	694.6
532.999	684
533.4	682.4
533.822	690.2
534.223	682.6
534.645	687
535.046	681.8
535.468	683.2
535.869	704.6
536.292	678.8
536.693	729
537.115	691
537.516	676.2
537.939	693
538.34	708
538.742	698.2
539.165	681.4
539.566	683.6
539.989	686
540.391	683.4
540.814	682.6
541.216	692.4
541.639	681.8
542.041	705.6
542.464	674
542.866	677.8
543.268	673.8
543.691	685.2
544.093	690.6
544.517	712.8
544.919	680
545.343	719.8
545.745	668.6
546.147	678.8
546.571	682.2
546.974	665.6
547.398	680.6
547.8	698.2
548.224	678
548.627	679.8
549.03	683
549.454	678.8
549.857	671.2
550.281	670.8
550.684	674
551.087	692
551.512	689.6
551.915	683.8
552.34	680.4
552.743	676.2
553.146	678
553.571	675.6
553.975	706.8
554.399	671.2
554.803	742.4
555.207	673.6
555.632	669.8
556.036	681.8
556.461	671.6
556.865	682.8
557.268	670
557.694	682.2
558.098	689.6
558.502	678.6
558.927	679.6
559.332	676
559.736	676.6
560.162	682.2
560.566	681.2
560.992	686.8
561.396	670
561.801	673.4
562.227	682.6
562.631	684.2
563.036	678.2
563.462	686.6
563.867	677.8
564.272	661.8
564.698	692.4
565.103	668.8
565.508	696.4
565.935	676.8
566.34	674.4
566.745	687.6
567.172	674.2
567.577	690.8
567.982	695.2
568.409	680.4
568.815	668.4
569.22	667.8
569.626	676.2
570.053	668.8
570.459	680.8
570.865	674.6
571.292	686.8
571.698	682.4
572.104	662.4
572.531	671.6
572.937	687.4
573.343	684.8
573.75	667.4
574.177	669.6
574.583	677.4
574.99	673.8
575.396	675.4
575.824	668
576.231	674.6
576.637	671.8
577.065	708
577.472	668.2
577.879	660.8
578.286	684.8
578.714	673.2
579.121	672.4
579.528	681.2
579.935	684.2
580.364	664.8
580.771	659.4
581.178	665
581.585	679.8
582.014	679
582.421	667.8
582.829	675.6
583.236	684.2
583.644	658.4
584.073	668.8
584.481	671
584.889	662.6
585.296	677
585.726	665
586.134	661.4
586.542	663.6
586.95	686
587.358	657.2
587.787	674.8
588.196	656
588.604	667.8
589.012	661
589.421	652.8
589.851	660.2
590.259	671.4
590.668	660.6
591.076	705.4
591.485	663
591.894	668.8
592.324	682.2
592.733	679.6
593.142	657
593.551	664
593.96	705.4
594.369	667.4
594.8	662.2
595.209	663.8
595.618	648.4
596.028	660.4
596.437	659.8
596.847	667.8
597.256	660
597.687	680.8
598.097	668.4
598.507	656.2
598.917	655.6
599.327	677.6
599.736	671.6
600.146	683
600.556	674
600.988	686.8
601.398	666.6
601.808	680.6
602.219	652.8
602.629	675.8
603.039	677.2
603.45	688.6
603.86	670.2
604.271	682
604.703	673
605.114	663.8
605.525	669.2
605.935	664.4
606.346	688.8
606.757	678
607.168	664.2
607.579	670.6
607.99	672.4
608.402	666.2
608.813	667
609.224	667.6
609.636	660.6
610.047	661.8
610.48	676.8
610.892	675.4
611.303	677.4
611.715	665.4
612.127	663.2
612.539	659
612.95	673.4
613.362	653.2
613.774	653.8
614.186	660.2
614.599	656.2
615.011	673.4
615.423	665.4
615.835	666.4
616.248	642.6
616.66	666.6
617.073	649
617.485	658.4
617.898	680.4
618.311	668.8
618.723	665.4
619.136	694.2
619.549	678.2
619.962	687.2
620.375	659.4
620.788	669.2
621.201	665
621.614	669.8
622.028	669.4
622.441	665.8
622.854	682.2
623.268	663.2
623.681	670
624.095	675.8
624.509	670.4
624.922	670.8
625.336	647.4
625.728	671.8
626.142	676.6
626.556	692.6
626.97	678.6
627.384	665.8
627.799	661.6
628.213	675.6
628.627	665.8
629.041	664.4
629.456	656.8
629.87	670.8
630.285	669
630.699	678
631.093	664.6
631.507	673
631.922	669.4
632.337	677.4
632.752	657.2
633.167	670.4
633.582	662
633.997	656.6
634.412	654.2
634.806	662.8
635.221	659
635.637	669.4
636.052	650.8
636.468	669
636.883	680.2
637.299	661.6
637.715	650.2
638.109	654.6
638.525	658.2
638.941	673.4
639.357	667
639.773	683.4
640.189	658.6
640.584	651.4
641	670
641.416	662.2
641.832	666.4
642.249	660.2
642.665	667.8
643.06	666.2
643.477	676.6
643.894	650.2
644.31	660.6
644.727	662.6
645.123	664.8
645.54	653.2
645.957	661
646.374	673
646.77	662.8
647.187	695.6
647.604	674
648.021	649.8
648.439	652.4
648.835	666
649.252	665.6
649.67	666.4
650.088	665.4
650.484	666.6
650.902	672.4
651.32	673.8
651.738	663
652.134	667.6
652.552	682.8
652.971	668.6
653.389	670.4
653.786	683.4
654.204	688.6
654.622	653.4
655.019	659.4
655.438	670
655.857	669.2
656.275	667.4
656.673	656.2
657.091	746
657.51	651.2
657.908	672.6
658.327	683.8
658.746	655.6
659.144	669
659.563	683
659.982	662
660.38	660
660.8	667.8
661.219	671.4
661.617	665.2
662.037	667
662.457	678.2
662.855	650.6
663.275	705.2
663.695	659.4
664.094	657
664.514	664.4
664.934	657.4
665.333	665
665.753	652.4
666.152	656.6
666.572	658.4
666.993	683
667.392	659.2
667.812	662.8
668.212	656.2
668.632	673.2
669.053	658.6
669.453	674
669.874	669.4
670.273	667.4
670.694	650
671.116	680.4
671.515	667.8
671.937	656.8
672.337	661.6
672.758	663
673.158	674.2
673.58	652.2
673.98	666.2
674.402	679.2
674.824	665
675.224	659.8
675.646	645.8
676.047	649.6
676.469	666.4
676.869	664.2
677.292	669.8
677.693	666.2
678.115	660.4
678.516	668.4
678.939	675.8
679.34	661.6
679.762	677.6
680.164	673.6
680.586	657.2
680.988	664.4
681.411	701.8
681.812	656.8
682.236	662.2
682.637	654.6
683.061	657.6
683.462	667.6
683.864	658.8
684.288	672.2
684.69	653.8
685.114	671
685.516	670.2
685.94	656.6
686.342	671
686.766	649.2
687.168	656.2
687.571	672.8
687.995	665.2
688.398	655.4
688.822	661
689.225	673.4
689.628	684.6
690.052	653.6
690.456	662
690.88	660.8
691.284	647.8
691.687	675
692.112	649.6
692.515	652.8
692.919	666.6
693.344	673.6
693.747	658.6
694.173	652.6
694.577	676
694.98	655.2
695.406	651.8
695.81	669.2
696.214	673
696.64	666.4
697.044	668.4
697.448	672.2
697.874	654.2
698.279	655.4
698.684	651.2
699.11	650.4
699.514	658.8
699.919	663.6
700.324	656.8
700.75	665
701.156	660.6
701.561	677.8
701.987	670.4
702.393	678.2
702.798	678.8
703.203	665
703.63	654
704.036	663.8
704.442	668.8
704.847	655.8
705.274	663
705.68	667.2
706.086	677.2
706.492	655.8
706.92	661
707.326	671.6
707.732	661
708.139	648.2
708.545	654.2
708.973	660.8
709.38	663
709.786	649.2
710.193	682.4
710.6	666.6
711.028	649.8
711.435	659.8
711.842	658
712.249	660.2
712.656	653
713.064	671
713.492	655.4
713.9	654.8
714.307	665.6
714.715	667.8
715.123	663.6
715.53	666.8
715.938	669.2
716.367	669.6
716.775	660.4
717.184	650.2
717.592	657.4
718	668
718.408	697.8
718.816	711
719.225	661.2
719.633	658.8
720.042	642.4
720.472	662.8
720.881	678.2
721.29	668.8
721.699	649.4
722.108	666.6
722.517	662.2
722.926	650.8
723.335	671.2
723.744	671
724.154	663.8
724.563	665.2
724.973	670
725.382	665.6
725.792	663
726.202	654.6
726.612	682.2
727.022	656.8
727.432	658.4
779.813	659.4
780.223	708
780.634	664
781.044	648
781.454	659.2
781.865	683
782.276	644
782.686	673.6
783.097	664.2
783.508	659.6
783.919	667
784.33	686.2
784.741	672.2
785.152	655.2
785.563	646.6
785.974	649.4
786.386	667.2
786.776	654.4
787.188	655.6
787.599	647.6
788.011	667.8
788.423	657.8
788.835	662
789.247	653.2
789.659	655.4
790.071	648.8
790.483	696.8
790.874	656.8
791.286	673
791.699	653
792.111	655.8
792.524	655
792.937	652.4
793.349	656.4
793.741	652.4
794.154	647.6
794.567	682.6
794.98	657.2
795.393	652.4
795.785	675.2
796.198	664.8
796.612	659.2
797.026	652.2
797.439	643.4
797.831	656.6
798.245	651.4
798.659	657.6
799.073	655
799.487	653
799.88	655.6
800.294	651.6
800.708	667.6
801.123	658.2
801.516	678.6
801.93	648
802.345	635.2
802.76	652.8
803.153	678.4
803.568	672.6
803.983	667.4
804.377	669.4
804.792	643.6
805.207	645
805.601	658.6
806.016	698.2
806.432	656.6
806.826	687
807.242	674.2
807.658	661.6
808.052	651
808.468	656.2
808.884	654.4
809.279	653
809.695	668.4
810.111	674.2
810.506	662.4
810.922	678.4
811.339	659
811.734	666.8
812.151	649.2
812.546	647.4
812.963	658
813.38	669.4
813.776	663.2
814.193	690.8
814.589	648.8
815.006	658.4
815.402	653.2
815.82	648.4
816.237	658.4
816.633	661
817.051	646.6
817.448	650.4
817.866	649.8
818.262	671.8
818.68	650.8
819.077	650.2
819.495	651.6
819.892	696.2
820.311	643.8
820.708	649.2
821.127	653.8
821.524	671.8
821.943	657.6
822.34	671
822.759	656.6
823.157	663.4
823.576	676.2
823.974	661.6
824.393	776.6
824.791	652
825.189	642.6
825.609	656.6
826.007	650.8
826.427	640
826.826	660.8
827.246	666.8
827.644	643.2
828.043	671
828.463	654.2
828.862	660.6
829.261	658.8
829.682	645.4
830.081	667.8
830.502	647.8
830.901	665
831.301	653.6
831.722	641.8
832.121	659
832.521	655
832.943	667.8
833.342	662.4
833.742	642.2
834.164	654.4
834.564	644.8
834.965	657.8
835.386	663
835.787	644.6
836.188	656.2
836.588	656.4
837.01	652.2
837.411	649.8
837.812	664.4
838.213	670.6
838.636	654.8
839.037	740
839.438	663.4
839.84	655.6
840.263	662.2
840.664	668.8
841.066	669
841.468	653
841.891	649.8
842.293	663.6
842.695	660
843.098	666.4
843.5	653.8
843.902	667.4
844.326	666.8
844.729	661
845.131	665
845.534	647
845.937	662.4
846.34	678.6
846.764	650.8
847.167	664.6
847.571	647.2
847.974	649.8
848.377	652.8
848.781	713.8
849.184	666.6
849.588	651.8
849.992	654.6
850.396	657.4
850.821	674.8
851.225	659.2
851.63	660
852.034	672.4
852.438	659
852.843	800
853.247	652
853.652	647.8
854.057	682.2
854.462	660
854.867	660
855.272	688.2
855.677	660.8
856.082	648.4
856.487	645.8
