#lambda/nm	C1
208.295	561.2
208.67	503.2
209.045	471.8
209.419	464.6
209.794	681.6
210.169	664
210.544	804.8
210.919	694.4
211.295	675
211.67	678.4
212.045	687.4
212.421	680.6
212.796	724.2
213.172	675.4
213.547	678
213.923	692
214.299	681.6
214.675	684
215.051	692.8
215.427	696.6
215.803	706.4
216.179	689.2
216.555	676.2
216.932	687.2
217.308	685.4
217.684	674.4
218.061	683.2
218.438	683.2
218.814	683.4
219.191	690
219.568	669.8
219.945	679
220.322	683
220.699	684
221.076	685.4
221.453	680.6
221.83	671.6
222.208	671.6
222.585	675.8
222.962	692
223.34	681.8
223.717	681
224.095	685.6
224.473	686.8
224.851	673
225.229	676.6
225.607	697.6
225.985	675.8
226.363	692.8
226.741	684
227.119	681.2
227.497	695.4
227.876	670.2
228.254	685.4
228.633	686.8
229.011	690.2
229.39	685.4
229.769	684.4
230.148	684.2
230.527	706.2
230.905	687
231.284	692.4
231.664	677.6
232.043	692.8
232.422	692.6
232.801	678.6
233.181	692.4
233.56	679.8
233.94	688.2
234.319	675.6
234.699	684
235.079	727
235.458	729
235.838	704.2
236.218	681.6
236.598	672.6
236.978	683.2
237.358	668.8
237.738	680.4
238.119	692.6
238.499	671.8
238.88	690
239.26	702.4
239.641	671.8
240.021	681.6
240.402	688.2
240.783	679.6
241.163	680.2
241.544	683.6
241.925	677.4
242.306	704.2
242.687	679.2
243.069	682.8
243.45	695.2
243.831	678.4
244.212	681.6
244.594	722
244.975	696.4
245.357	690.8
245.739	679
246.12	686
246.502	696
246.884	687.6
247.266	681.2
247.648	696.8
248.03	707.4
248.412	688.8
248.794	687
249.176	684
249.559	693.2
249.941	677.8
250.323	681
250.706	689.8
251.089	682.6
251.471	691.4
251.854	684.4
252.237	682.2
252.62	692.8
253.002	694
253.385	685.8
253.769	700.8
254.152	677.6
254.535	687.4
254.918	674
255.301	683.2
255.685	673.8
256.068	668.8
256.452	710
256.835	692.6
257.219	684
257.603	693.4
257.986	676
258.37	689.6
258.754	669.8
259.138	696
259.522	696.4
259.906	691
260.29	678.4
260.675	674.2
261.059	695
261.443	675
261.828	693.8
262.212	691.4
262.597	673.8
262.981	678.6
263.366	686.2
263.751	684.8
264.136	679.8
264.521	673.6
264.906	671.2
265.291	686
265.676	685.4
266.061	685.8
266.446	694.6
266.831	690.2
267.217	706.8
267.602	688.8
267.987	689
268.373	681.2
268.759	688.8
269.144	686.2
269.53	677.4
269.916	686.2
270.302	681.4
270.688	688.2
271.074	691.4
271.46	693
271.846	721.8
272.232	687.8
272.618	677.6
273.004	681
273.391	693.2
273.777	701.4
274.164	688.4
274.55	705.2
274.937	696.8
275.324	680.4
275.71	697.6
276.097	700.4
276.484	676.2
276.871	683.6
277.258	691.4
277.645	670
278.032	685.8
278.419	682.8
278.807	692.2
279.194	681.4
279.581	692.2
279.969	690.2
280.356	676.6
280.744	687.6
281.131	713
281.519	699.6
281.907	688.6
282.295	685.8
282.682	706.2
283.07	679.8
283.458	687.4
283.846	700.2
284.235	703.6
284.623	689.6
285.011	672.8
285.399	684.2
285.788	690.8
286.176	660
286.565	703.6
286.953	680.8
287.342	681
287.731	677
288.119	677
288.508	677.8
288.897	682
289.286	678.4
289.675	694.2
290.064	689.2
290.453	683.2
290.821	691.4
291.21	702.8
291.599	679.4
291.989	684
292.378	701.2
292.768	705.2
293.157	683.2
293.547	702.4
293.936	688.4
294.326	679.8
294.716	687.6
295.106	682.6
295.496	694
295.886	694
296.276	692.2
296.666	670.2
297.056	673.6
297.446	676
297.836	702
298.227	686.2
298.617	685
299.008	703.6
299.398	680.4
299.789	683.6
300.179	692.2
300.57	706.4
300.961	682
301.352	683
301.742	704.2
302.133	692.8
302.524	689.6
302.915	692.6
303.307	679
303.698	700.6
304.089	696.4
304.48	682
304.872	687.4
305.263	688
305.655	685.2
306.046	694.4
306.438	694.6
306.829	685.2
307.221	703.2
307.613	692.4
308.005	698.2
308.397	706.4
308.789	713
309.181	719
309.573	710.2
309.965	690.2
310.357	690.4
310.749	702.2
311.142	684.2
311.534	683.6
311.926	699
312.319	686.4
312.711	686
313.104	700.6
313.497	678.4
313.889	732.6
314.282	700.8
314.675	711.8
315.068	696
315.461	691.4
315.854	725.4
316.247	698.6
316.64	695.6
317.033	698.2
317.405	697.2
317.798	692.6
318.192	692.8
318.585	680.4
318.979	696.8
319.372	681.4
319.766	686.4
320.16	695.2
320.553	707.2
320.947	709.8
321.341	679
321.735	686.8
322.129	670.6
322.523	714.4
322.917	684
323.311	698.2
323.705	681.6
324.099	689.2
324.494	706.8
324.888	697.8
325.282	683.6
325.677	694.6
326.071	689.2
326.466	698.8
326.861	690.4
327.255	695.2
327.65	701.8
328.045	695.4
328.44	691.6
328.835	686.4
329.23	680
329.625	709.6
330.02	681.6
330.415	717.6
330.81	688.8
331.206	692.6
331.601	683
331.996	691.4
332.37	711.8
332.766	675.4
333.161	707
333.557	683.6
333.953	682.4
334.348	949.6
334.744	688.6
335.14	681.8
335.536	691
335.932	696.2
336.328	686.6
336.724	698.6
337.12	692.2
337.516	689.4
337.913	694.6
338.309	702
338.705	685.6
339.102	696.6
339.498	683
339.895	708.4
340.291	688
340.688	706.6
341.085	681.4
341.481	691
341.878	685.6
342.275	721
342.672	682.4
343.069	686.4
343.466	673.2
343.842	696.2
344.239	678.2
344.636	685.4
345.033	678.8
345.431	686
345.828	690.6
346.225	678
346.623	733
347.02	690.8
347.418	697.2
347.816	707.8
348.213	679
348.611	689.8
349.009	690
349.407	699.8
349.805	681.8
350.203	677
350.601	699.2
350.999	677.4
351.397	740.4
351.795	685.4
352.193	697
352.57	690.8
352.969	704.2
353.367	676.4
353.766	681.2
354.164	686.2
354.563	708
354.961	699.8
355.36	683.4
355.759	681
356.158	676.2
356.557	675.4
356.956	678.2
357.355	677.8
357.754	684.6
358.153	694.2
358.552	709.8
358.951	685.8
359.35	698.6
359.75	681.2
360.149	683.6
360.527	671
360.926	670.6
361.326	681.4
361.726	670
362.125	672.6
362.525	693.6
362.925	674
363.325	677.2
363.724	675.4
364.124	678.4
364.524	667
364.924	679.4
365.324	694.4
365.725	662.6
366.125	685.6
366.525	682
366.904	672.2
367.304	659.6
367.705	700.6
368.105	694.2
368.506	672.8
368.906	680.4
369.307	677.4
369.708	683.8
370.108	661.4
370.509	691.4
370.91	675.6
371.311	683.6
371.712	676.6
372.113	680.2
372.514	663.8
372.894	678.6
373.295	687.6
373.696	695.6
374.097	686
374.499	710.6
374.9	690
375.301	678.2
375.703	680.2
376.105	667
376.506	683.6
376.908	690.4
377.309	680.6
377.711	680.2
378.113	676
378.493	673.2
378.895	678.6
379.297	685
379.699	659.4
380.102	689.8
380.504	679
380.906	672.8
381.308	711.6
381.71	667.6
382.113	690.4
382.515	677
382.918	677.6
383.299	673.4
383.701	691
384.104	681.8
384.507	658.2
384.909	667.6
385.312	669.2
385.715	671
386.118	681.8
386.521	668.4
386.924	694.2
387.327	668
387.709	668
388.112	663.4
388.515	675.6
388.918	672.4
389.322	681.2
389.725	674
390.129	705
390.532	680
390.936	664.8
391.339	662
391.743	677.8
392.125	660
392.529	685.2
392.933	692.6
393.337	685.6
393.74	676.6
394.144	678
394.548	676
394.953	667.6
395.357	689.4
395.761	667.8
396.144	678.8
396.548	672.8
396.952	675.6
397.357	679
397.761	674.2
398.166	672.8
398.57	673.4
398.975	668.6
399.379	680.2
399.763	731.6
400.168	668.8
400.572	675.8
400.977	678.8
401.382	697.2
401.787	698.4
402.192	694
402.597	694.4
403.002	666.8
403.386	686.2
403.791	690.6
404.197	672.8
404.602	681
405.007	683.2
405.413	678.8
405.818	676.8
406.224	665.4
406.608	665
407.014	665.6
407.42	702.4
407.825	669
408.231	683
408.637	686.6
409.043	699.4
409.449	679.8
409.834	680.8
410.24	685.2
410.646	686.6
411.052	691.4
411.458	688.2
411.865	701.2
412.271	688.6
412.677	681.2
413.062	684.2
413.469	673.6
413.875	712
414.282	693.2
414.689	692.6
415.095	688
415.502	673.6
415.888	689.2
416.294	661.6
416.701	731
417.108	668.4
417.515	681.4
417.923	690.2
418.33	704.4
418.715	701.4
419.123	679.2
419.53	681
419.937	687.6
420.345	700
420.752	675.6
421.16	693.4
421.546	683
421.953	690.2
422.361	671
422.769	682.2
423.177	679
423.585	716.8
423.992	703.6
424.379	697.8
424.787	694.4
425.195	715.8
425.603	683.8
426.011	697
426.419	703.2
426.806	684.2
427.214	686.4
427.623	696.8
428.031	701.8
428.44	680.6
428.848	697.2
429.235	693.4
429.644	682
430.053	677
430.461	698.2
430.87	704.6
431.279	691.8
431.666	671.2
432.075	680.8
432.484	685.8
432.893	686.6
433.302	712.8
433.711	747.8
434.099	692.6
434.508	690.8
434.918	686.8
435.327	705.6
435.737	702.2
436.125	697.8
436.534	699
436.944	711.2
437.353	703.4
437.763	729.6
438.173	702
438.561	715
438.971	690.6
439.381	698
439.791	712.2
440.201	688
440.589	714
440.999	725.4
441.409	718.6
441.819	707
442.23	725.6
442.619	735.2
443.029	722
443.439	735.8
443.85	735
444.26	735.8
444.649	744.6
445.06	722.8
445.471	715
445.881	727
446.292	746.6
446.682	751
447.092	703
447.503	783.2
447.914	733.6
448.325	731
448.715	726.4
449.126	721.6
449.537	731.2
449.948	743
450.338	737.8
450.75	749.2
451.161	734
451.572	739.8
451.984	727.8
452.374	724.2
452.786	736
453.197	735.4
453.609	741.8
453.999	712.4
454.411	732.2
454.823	751.4
455.235	738.4
455.647	730.4
456.037	739.6
456.449	726
456.862	744.2
457.274	744.8
457.665	723.2
458.077	741.2
458.489	774
458.902	735.2
459.293	743.8
459.705	736.6
460.118	732.6
460.53	727.2
460.921	743.4
461.334	735.8
461.747	743.6
462.16	751
462.551	758.8
462.964	747.6
463.377	725.2
463.79	733.2
464.182	741.4
464.595	733.2
465.008	738.8
465.421	736
465.813	733.4
466.226	743.4
466.64	736.4
467.053	785.8
467.445	751
467.859	767.8
468.272	746
468.686	748.2
469.078	738.2
469.492	729
469.906	740
470.298	754.6
470.712	736
471.126	798.4
471.54	726.6
471.933	721
472.347	740.4
472.761	734.2
473.175	729.4
473.568	737
473.982	731.8
474.397	738.4
474.79	736.4
475.204	730.8
475.619	732.2
476.033	731.4
476.426	733.8
476.841	729
477.256	759.2
477.649	715.8
478.064	733.4
478.479	731.2
478.872	727.4
479.287	708.4
479.702	726.6
480.118	736.2
480.511	736.6
480.927	733.2
481.342	726.4
481.736	735.6
482.151	725
482.566	739.2
482.96	733.8
483.376	739.2
483.792	725.6
484.186	731.4
484.602	729.6
485.017	731.4
485.412	730
485.827	735.8
486.243	727.8
486.638	759.2
487.054	743
487.47	749.4
487.865	722.6
488.281	725.2
488.697	722.2
489.092	730.6
489.508	712.2
489.925	739.6
490.32	722
490.736	735.4
491.153	730.6
491.548	725.6
491.964	740.6
492.381	708.2
492.776	735.8
493.193	723.4
493.61	726.6
494.006	727.6
494.422	726.6
494.84	713.6
495.235	721
495.652	717.4
496.069	719
496.465	705.8
496.883	720.2
497.3	739.6
497.696	705.4
498.113	731.8
498.509	701.2
498.927	707.2
499.344	710.8
499.741	706
500.158	729
500.576	728.4
500.973	723.6
501.39	704.8
501.787	705.2
502.205	717.4
502.623	706
503.02	703
503.438	702
503.856	709.4
504.253	720
504.671	711
505.068	707.2
505.486	709
505.905	728
506.302	702.8
506.72	721.2
507.118	701.2
507.536	710.4
507.955	705
508.352	705.6
508.771	711.2
509.169	714.2
509.587	701.2
510.006	711.6
510.404	692.6
510.823	705.2
511.221	694.2
511.64	697.2
512.038	718.2
512.457	694.8
512.877	701.4
513.275	694
513.694	706.2
514.092	705
514.512	709.4
514.91	695.4
515.33	699
515.749	697.8
516.148	701.8
516.568	702.6
516.966	701.4
517.386	698.4
517.785	699.4
518.205	696.2
518.603	692.8
519.024	700.8
519.444	693.6
519.843	707.6
520.263	715.8
520.662	701.6
521.082	690.4
521.481	705.2
521.902	699.4
522.301	703.2
522.722	710.4
523.121	686.6
523.542	684.6
523.963	694.8
524.362	694.8
524.783	698.6
525.183	697.6
525.604	699.8
526.003	694.6
526.425	691.6
526.824	700.8
527.246	712
527.646	711.2
528.067	693
528.467	689.8
528.888	695.6
529.289	691.6
529.71	689.8
530.11	687.2
530.532	691.2
530.932	685.6
531.354	670.8
531.755	722
532.176	704.6
532.577	695.4
532.999	685.6
533.4	686.2
533.822	697
534.223	685.8
534.645	675.8
535.046	683.8
535.468	692.2
535.869	709.6
536.292	681.6
536.693	722.4
537.115	681
537.516	682.8
537.939	686
538.34	706
538.742	697.8
539.165	683
539.566	677.6
539.989	678
540.391	676
540.814	693.2
541.216	682.4
541.639	687
542.041	698.2
542.464	684
542.866	681
543.268	673
543.691	689.2
544.093	693.8
544.517	703.2
544.919	682.2
545.343	707.8
545.745	673.8
546.147	695
546.571	676
546.974	671
547.398	689.6
547.8	698.8
548.224	677.6
548.627	668.4
549.03	688.2
549.454	675
549.857	658.8
550.281	679.6
550.684	675.6
551.087	691.8
551.512	687.8
551.915	682.4
552.34	685.2
552.743	680
553.146	689.2
553.571	681.4
553.975	700
554.399	674.2
554.803	733.6
555.207	686.2
555.632	677.8
556.036	677
556.461	673.6
556.865	681.2
557.268	672.4
557.694	672.8
558.098	687
558.502	684.6
558.927	675.8
559.332	674.4
559.736	671.4
560.162	675.6
560.566	676
560.992	679
561.396	681
561.801	667.6
562.227	684
562.631	671.8
563.036	672.4
563.462	684.2
563.867	681.8
564.272	665.4
564.698	685
565.103	669
565.508	695.8
565.935	663.8
566.34	675.2
566.745	687.4
567.172	677
567.577	696.4
567.982	689.4
568.409	667.8
568.815	661.4
569.22	665.6
569.626	678
570.053	657
570.459	675.8
570.865	677.2
571.292	678.6
571.698	678.6
572.104	662.4
572.531	667.8
572.937	693.4
573.343	664.4
573.75	664.6
574.177	677
574.583	671.8
574.99	674
575.396	686.2
575.824	674.8
576.231	682.2
576.637	665.4
577.065	702.2
577.472	661.2
577.879	667.4
578.286	687.4
578.714	660.8
579.121	668.6
579.528	663.2
579.935	676.8
580.364	663.2
580.771	645
581.178	667.6
581.585	677.6
582.014	670.4
582.421	658.8
582.829	656.6
583.236	680.4
583.644	658.4
584.073	664.6
584.481	679.4
584.889	664.4
585.296	667.6
585.726	680.4
586.134	651.6
586.542	663.4
586.95	683
587.358	660.4
587.787	671.8
588.196	665
588.604	668.8
589.012	664
589.421	658
589.851	661.8
590.259	667.8
590.668	663.6
591.076	706.6
591.485	656.6
591.894	670.2
592.324	680.8
592.733	678.2
593.142	650.8
593.551	666
593.96	708.6
594.369	648
594.8	655.4
595.209	664.4
595.618	644
596.028	666
596.437	662.4
596.847	667.4
597.256	666.6
597.687	673
598.097	656
598.507	656.2
598.917	664.8
599.327	663.8
599.736	663.6
600.146	672
600.556	663.8
600.988	679.8
601.398	665.8
601.808	675
602.219	654.6
602.629	667.4
603.039	666.2
603.45	687.2
603.86	662.4
604.271	677.8
604.703	667.4
605.114	668.6
605.525	667.6
605.935	677.8
606.346	683.4
606.757	674
607.168	659.4
607.579	660.2
607.99	676.8
608.402	669
608.813	668.6
609.224	653.6
609.636	648.4
610.047	652.8
610.48	665.8
610.892	679.8
611.303	672
611.715	661
612.127	659.4
612.539	664
612.95	667.8
613.362	656
613.774	658.2
614.186	664.4
614.599	654
615.011	684.4
615.423	665.4
615.835	656.6
616.248	649
616.66	677.6
617.073	658.6
617.485	668.2
617.898	675.8
618.311	674
618.723	668.2
619.136	694
619.549	681.8
619.962	684.4
620.375	663.2
620.788	669.4
621.201	659.8
621.614	670
622.028	653.8
622.441	668.6
622.854	677.2
623.268	656.2
623.681	673.8
624.095	668.6
624.509	666
624.922	674.4
625.336	652.8
625.728	657
626.142	669.8
626.556	680.2
626.97	660.8
627.384	657.4
627.799	656.2
628.213	676
628.627	659.2
629.041	661.2
629.456	667.6
629.87	668.6
630.285	670.2
630.699	672.4
631.093	662.8
631.507	660.8
631.922	676.4
632.337	670.8
632.752	657.4
633.167	661.6
633.582	663.4
633.997	657.8
634.412	655.6
634.806	663
635.221	650.2
635.637	663.4
636.052	651.6
636.468	668.6
636.883	681.8
637.299	656.4
637.715	643.8
638.109	655.6
638.525	649
638.941	679.4
639.357	661.6
639.773	686.2
640.189	646.6
640.584	665
641	666.8
641.416	660.4
641.832	659.6
642.249	663.8
642.665	652.8
643.06	664.2
643.477	671.4
643.894	642
644.31	657.2
644.727	666
645.123	662.6
645.54	655
645.957	666.6
646.374	686
646.77	663.4
647.187	696.6
647.604	668
648.021	633.4
648.439	656.8
648.835	680.6
649.252	670.8
649.67	661.8
650.088	660
650.484	667.8
650.902	663.6
651.32	663.6
651.738	656.4
652.134	673
652.552	687
652.971	672
653.389	658.4
653.786	679
654.204	683.2
654.622	658
655.019	661.4
655.438	673.8
655.857	667.8
656.275	669.2
656.673	648.6
657.091	742.2
657.51	652
657.908	674.8
658.327	678.4
658.746	650.2
659.144	660.6
659.563	679
659.982	663
660.38	655
660.8	666.8
661.219	672.4
661.617	666.2
662.037	661.4
662.457	678
662.855	651.6
663.275	694.8
663.695	664.4
664.094	656.6
664.514	665.4
664.934	648.6
665.333	672.8
665.753	658
666.152	644.8
666.572	649.4
666.993	673.6
667.392	661.4
667.812	663.2
668.212	666.8
668.632	676.6
669.053	666.6
669.453	675
669.874	661.6
670.273	663.8
670.694	652.2
671.116	674
671.515	671.6
671.937	662.6
672.337	654
672.758	652.2
673.158	660.8
673.58	652.6
673.98	664.6
674.402	679.2
674.824	650.4
675.224	650
675.646	646.6
676.047	653
676.469	656.6
676.869	664.4
677.292	665.4
677.693	650.6
678.115	660.6
678.516	662.6
678.939	662.2
679.34	657.4
679.762	668.8
680.164	663
680.586	646.8
680.988	664.8
681.411	681.6
681.812	660
682.236	646.6
682.637	651.8
683.061	648.6
683.462	662.6
683.864	655.6
684.288	660.8
684.69	645
685.114	671.6
685.516	673.4
685.94	658
686.342	664.4
686.766	660.6
687.168	650.8
687.571	679
687.995	661.2
688.398	652.4
688.822	660.8
689.225	679.6
689.628	681
690.052	656
690.456	670.6
690.88	672.6
691.284	656
691.687	672
692.112	656
692.515	651.4
692.919	667.6
693.344	672.8
693.747	664
694.173	651.8
694.577	674
694.98	657.4
695.406	658
695.81	658.8
696.214	658.8
696.64	666.6
697.044	670.6
697.448	678.4
697.874	665.2
698.279	661.4
698.684	650.8
699.11	644.2
699.514	662
699.919	658.6
700.324	642.6
700.75	663
701.156	651
701.561	673.2
701.987	661.2
702.393	669.2
702.798	670.4
703.203	660.2
703.63	645.6
704.036	646.4
704.442	663.2
704.847	647.8
705.274	664.8
705.68	661
706.086	672.2
706.492	647.4
706.92	660.2
707.326	667
707.732	660.8
708.139	654.2
708.545	652.6
708.973	652
709.38	657
709.786	647.8
710.193	672.6
710.6	661.8
711.028	648.8
711.435	652.8
711.842	664.6
712.249	656.4
712.656	654.8
713.064	666.2
713.492	643.8
713.9	653.8
714.307	650.8
714.715	655.4
715.123	656.8
715.53	655.6
715.938	673.2
716.367	660.6
716.775	658.6
717.184	645
717.592	646.8
718	673.2
718.408	692.4
718.816	712.4
719.225	663.8
719.633	660.2
720.042	655
720.472	652.2
720.881	680.2
721.29	670.2
721.699	646.4
722.108	653.2
722.517	670.8
722.926	658
723.335	672.4
723.744	658.4
724.154	666.6
724.563	653
724.973	662.6
725.382	660.6
725.792	656.6
726.202	650.2
726.612	680.4
727.022	659.4
727.432	659.2
779.813	656.8
780.223	706.8
780.634	659.6
781.044	648.6
781.454	658.6
781.865	671.2
782.276	650.6
782.686	668.6
783.097	660.2
783.508	658.6
783.919	659
784.33	670.8
784.741	679
785.152	645.4
785.563	646.6
785.974	659.4
786.386	661.4
786.776	657.4
787.188	658.6
787.599	649.2
788.011	664
788.423	660.4
788.835	655.6
789.247	639
789.659	649.4
790.071	647.6
790.483	705
790.874	649
791.286	662.2
791.699	656.2
792.111	656.8
792.524	659
792.937	651.2
793.349	642.6
793.741	641.8
794.154	640.4
794.567	682.2
794.98	649.6
795.393	645.8
795.785	671.4
796.198	646.2
796.612	658.2
797.026	656.6
797.439	638
797.831	649
798.245	646.8
798.659	649
799.073	643
799.487	643.6
799.88	649.2
800.294	646.8
800.708	656
801.123	650.6
801.516	679
801.93	645.6
802.345	643.8
802.76	655.4
803.153	670.6
803.568	676.8
803.983	664.4
804.377	655
804.792	633.6
805.207	642.2
805.601	653.4
806.016	685.4
806.432	651
806.826	697.4
807.242	675
807.658	663.6
808.052	649.6
808.468	660.4
808.884	654.4
809.279	652
809.695	670.2
810.111	675.6
810.506	659
810.922	671.4
811.339	658
811.734	672.4
812.151	654.8
812.546	648.2
812.963	650.2
813.38	662.2
813.776	655.8
814.193	678.4
814.589	645.6
815.006	658.2
815.402	654.6
815.82	648.8
816.237	655.8
816.633	659.2
817.051	650.4
817.448	654
817.866	647.4
818.262	675.4
818.68	652.2
819.077	660.8
819.495	655.4
819.892	700.2
820.311	650
820.708	648.2
821.127	651.2
821.524	663
821.943	653.8
822.34	669.8
822.759	654.4
823.157	650.2
823.576	669.2
823.974	675.4
824.393	726.4
824.791	658.4
825.189	642.8
825.609	643.8
826.007	654.2
826.427	649.8
826.826	654.6
827.246	662.8
827.644	640.6
828.043	669.8
828.463	654.8
828.862	664.4
829.261	658.6
829.682	639.2
830.081	660.4
830.502	653.2
830.901	657.4
831.301	646.8
831.722	630
832.121	661.2
832.521	645.6
832.943	660.6
833.342	663.4
833.742	646.2
834.164	656.2
834.564	650.8
834.965	650
835.386	641.2
835.787	645.8
836.188	655.4
836.588	658.4
837.01	656.4
837.411	637.4
837.812	668.4
838.213	657.2
838.636	652
839.037	732.4
839.438	658.6
839.84	652
840.263	659
840.664	661.6
841.066	652.4
841.468	661.6
841.891	650.4
842.293	673
842.695	657.2
843.098	662.2
843.5	652
843.902	651.2
844.326	666
844.729	662.8
845.131	672.4
845.534	658.6
845.937	666.2
846.34	672.8
846.764	650.4
847.167	658.4
847.571	655.4
847.974	652
848.377	651
848.781	707
849.184	671.8
849.588	639.2
849.992	652
850.396	656.4
850.821	672.8
851.225	663.4
851.63	653.4
852.034	671.4
852.438	652.6
852.843	702
853.247	651.6
853.652	662.2
854.057	676.4
854.462	658
854.867	659.6
855.272	693.2
855.677	655.8
856.082	642.8
856.487	648
856.893	664.8
857.298	647.6
857.704	648.2
