#lambda/nm	C1
208.295	547.6
208.67	496
209.045	463.8
209.419	459
209.794	701.6
210.169	674.2
210.544	810
210.919	698.2
211.295	684.4
211.67	695.4
212.045	698
212.421	694.6
212.796	724.4
213.172	688
213.547	676
213.923	690.6
214.299	676.2
214.675	695.4
215.051	693.2
215.427	696
215.803	711.6
216.179	705.4
216.555	684.8
216.932	701.6
217.308	687.4
217.684	692.4
218.061	694.6
218.438	697.2
218.814	690.6
219.191	697
219.568	678.2
219.945	685.8
220.322	695.6
220.699	700.2
221.076	699.8
221.453	700
221.83	683.6
222.208	695.4
222.585	693.6
222.962	691.6
223.34	688.2
223.717	691.2
224.095	683.8
224.473	689.2
224.851	684.2
225.229	675.8
225.607	704.8
225.985	672.6
226.363	690
226.741	681.2
227.119	684.2
227.497	708.4
227.876	672.8
228.254	702.4
228.633	691
229.011	689
229.39	696.2
229.769	699.4
230.148	698
230.527	709
230.905	694.6
231.284	689.6
231.664	683.2
232.043	711.8
232.422	698.6
232.801	691.2
233.181	697.8
233.56	687.6
233.94	699.8
234.319	677.4
234.699	688.6
235.079	737.6
235.458	737.4
235.838	710.8
236.218	684
236.598	680.2
236.978	682
237.358	683.4
237.738	678
238.119	698.8
238.499	672.2
238.88	693.4
239.26	709.2
239.641	683.6
240.021	688
240.402	700.4
240.783	683.2
241.163	683.4
241.544	691.2
241.925	687.2
242.306	699.4
242.687	683
243.069	681
243.45	695.2
243.831	685.8
244.212	686.8
244.594	734.4
244.975	702.6
245.357	690.2
245.739	686.2
246.12	684.6
246.502	701.6
246.884	697.8
247.266	695.6
247.648	699.6
248.03	714
248.412	691.4
248.794	690
249.176	682.6
249.559	700.4
249.941	689.6
250.323	682.2
250.706	686.6
251.089	693.6
251.471	694
251.854	689
252.237	687.8
252.62	698
253.002	686
253.385	688.4
253.769	701.4
254.152	686
254.535	697.8
254.918	676.4
255.301	688.2
255.685	690.8
256.068	687.4
256.452	719.6
256.835	704
257.219	701
257.603	704.8
257.986	675
258.37	696
258.754	679.2
259.138	688.6
259.522	701.6
259.906	692
260.29	689
260.675	687.2
261.059	699
261.443	681.6
261.828	705.6
262.212	698
262.597	676.4
262.981	691.2
263.366	693.2
263.751	690
264.136	686.8
264.521	683
264.906	674.8
265.291	708.4
265.676	686.2
266.061	697.2
266.446	708
266.831	698.6
267.217	707.2
267.602	700.6
267.987	694
268.373	681.4
268.759	703.4
269.144	697.8
269.53	681
269.916	682.8
270.302	686.4
270.688	699.2
271.074	692.8
271.46	706.4
271.846	728.4
272.232	684.2
272.618	674.4
273.004	693
273.391	701.8
273.777	705
274.164	695.2
274.55	708
274.937	688.4
275.324	685.8
275.71	702.6
276.097	703
276.484	684.6
276.871	687
277.258	700
277.645	685.2
278.032	690
278.419	685.8
278.807	692.4
279.194	681.6
279.581	681.2
279.969	688.6
280.356	695.2
280.744	696.2
281.131	717.8
281.519	706
281.907	691.6
282.295	692.4
282.682	707.6
283.07	693.6
283.458	701.2
283.846	699
284.235	708.6
284.623	716.2
285.011	684
285.399	690.6
285.788	693.8
286.176	680.6
286.565	705.6
286.953	679.2
287.342	692.6
287.731	679.8
288.119	681.6
288.508	695.6
288.897	697.4
289.286	676.8
289.675	699.8
290.064	701.8
290.453	684.2
290.821	692.8
291.21	713.4
291.599	683.2
291.989	695
292.378	701
292.768	713.4
293.157	690.4
293.547	702.6
293.936	695.2
294.326	690
294.716	699.8
295.106	688.4
295.496	703.6
295.886	705.2
296.276	690
296.666	680
297.056	693.8
297.446	686.6
297.836	712.4
298.227	690.6
298.617	696
299.008	705
299.398	680.2
299.789	693.2
300.179	707.4
300.57	714.6
300.961	684.2
301.352	694
301.742	711.2
302.133	692
302.524	698.4
302.915	697.2
303.307	682.6
303.698	700.6
304.089	694.4
304.48	688.6
304.872	700
305.263	696.8
305.655	687.8
306.046	695.2
306.438	699.4
306.829	700
307.221	705.6
307.613	704.2
308.005	698.8
308.397	707.4
308.789	714.2
309.181	721
309.573	710.6
309.965	709.4
310.357	693.4
310.749	713.2
311.142	691
311.534	689.4
311.926	698.2
312.319	693.6
312.711	690.8
313.104	709.6
313.497	692.8
313.889	733.4
314.282	709.4
314.675	729.2
315.068	693.4
315.461	699.2
315.854	727.4
316.247	705.2
316.64	692.4
317.033	700
317.405	699
317.798	685.6
318.192	699.8
318.585	684.2
318.979	709
319.372	679.2
319.766	695.8
320.16	703
320.553	713
320.947	711.2
321.341	689.6
321.735	693
322.129	676.8
322.523	717
322.917	690
323.311	707.4
323.705	692.8
324.099	686.4
324.494	704.6
324.888	713
325.282	690.2
325.677	714.8
326.071	710.4
326.466	703.8
326.861	696.8
327.255	702.4
327.65	712.2
328.045	718
328.44	695.8
328.835	698
329.23	680.4
329.625	715.6
330.02	689.4
330.415	710.2
330.81	701
331.206	696
331.601	682.4
331.996	702.8
332.37	717
332.766	672.8
333.161	718.6
333.557	692.4
333.953	690
334.348	1125.6
334.744	695.2
335.14	681.6
335.536	694.2
335.932	710.6
336.328	697.8
336.724	699.4
337.12	690.2
337.516	701.6
337.913	700
338.309	707.6
338.705	697.4
339.102	707.8
339.498	691.4
339.895	711.6
340.291	691
340.688	699.8
341.085	684.8
341.481	697.2
341.878	689.6
342.275	718.6
342.672	678
343.069	695.2
343.466	684.2
343.842	705
344.239	684.2
344.636	704
345.033	683.4
345.431	679.6
345.828	691.8
346.225	688.2
346.623	731.8
347.02	686.8
347.418	705
347.816	704
348.213	678
348.611	696.8
349.009	690.6
349.407	699
349.805	679.4
350.203	682.8
350.601	700.8
350.999	685.4
351.397	747.4
351.795	692.4
352.193	697.8
352.57	694.2
352.969	711.6
353.367	685.8
353.766	686.6
354.164	692.4
354.563	700.4
354.961	691.6
355.36	681.4
355.759	692.8
356.158	678.2
356.557	684.4
356.956	682.4
357.355	691.6
357.754	691.8
358.153	696.4
358.552	724.2
358.951	683.6
359.35	700.2
359.75	686.6
360.149	681
360.527	684.8
360.926	677.8
361.326	688
361.726	683.4
362.125	678
362.525	703.6
362.925	681.6
363.325	688.6
363.724	690
364.124	690.4
364.524	677.6
364.924	685.8
365.324	703
365.725	678.6
366.125	693
366.525	690.4
366.904	687.6
367.304	671.2
367.705	706.6
368.105	698.6
368.506	687
368.906	691.4
369.307	684.2
369.708	688.6
370.108	675.8
370.509	703.4
370.91	686
371.311	685.2
371.712	690.2
372.113	683.8
372.514	673.4
372.894	679.8
373.295	682
373.696	694.2
374.097	695
374.499	722.8
374.9	692.2
375.301	686
375.703	695.6
376.105	679.8
376.506	685.4
376.908	692.6
377.309	672.4
377.711	693
378.113	671.4
378.493	690
378.895	677.6
379.297	697
379.699	673.8
380.102	684.8
380.504	676.8
380.906	682.6
381.308	713.6
381.71	676.8
382.113	695.8
382.515	680.8
382.918	688.8
383.299	684.6
383.701	699.4
384.104	685.4
384.507	663.4
384.909	691.4
385.312	665.4
385.715	675
386.118	686
386.521	677
386.924	691.2
387.327	677.6
387.709	672.6
388.112	672.6
388.515	691.6
388.918	678.6
389.322	685.8
389.725	682.2
390.129	713.4
390.532	685
390.936	688.4
391.339	681.8
391.743	685.8
392.125	679
392.529	696.4
392.933	694.8
393.337	682.8
393.74	692.4
394.144	685.8
394.548	682
394.953	678.8
395.357	703.2
395.761	680
396.144	686
396.548	682.4
396.952	676.2
397.357	688.2
397.761	686.4
398.166	684.6
398.57	676.2
398.975	670.6
399.379	686
399.763	732.2
400.168	696.4
400.572	687.4
400.977	678.2
401.382	699.6
401.787	694.6
402.192	701.8
402.597	712.6
403.002	674.4
403.386	704.4
403.791	702.2
404.197	678.2
404.602	683
405.007	691
405.413	677.6
405.818	683.6
406.224	684.8
406.608	685.8
407.014	681.2
407.42	694.8
407.825	680.4
408.231	689
408.637	694.2
409.043	697.6
409.449	679.4
409.834	675.8
410.24	677.2
410.646	700.8
411.052	692.6
411.458	687.8
411.865	696.8
412.271	698.4
412.677	687.8
413.062	696.6
413.469	683
413.875	707.2
414.282	695.6
414.689	690.2
415.095	692.8
415.502	678.6
415.888	699.4
416.294	657.4
416.701	733.6
417.108	673.6
417.515	696.6
417.923	681.4
418.33	715.4
418.715	699.8
419.123	683.6
419.53	685
419.937	685.4
420.345	705.2
420.752	681
421.16	710.6
421.546	693.2
421.953	695.6
422.361	685.8
422.769	686.8
423.177	686.4
423.585	716.8
423.992	713.4
424.379	700.4
424.787	694
425.195	721.4
425.603	688
426.011	700.6
426.419	712.2
426.806	683
427.214	694.4
427.623	702.6
428.031	704
428.44	698.6
428.848	701.8
429.235	714.4
429.644	684.6
430.053	689
430.461	701.6
430.87	721
431.279	704.8
431.666	676
432.075	693
432.484	694
432.893	688
433.302	713
433.711	749.4
434.099	691.4
434.508	685.6
434.918	676.2
435.327	687.2
435.737	683.6
436.125	682.8
436.534	697.2
436.944	683.6
437.353	695.2
437.763	713.2
438.173	678.8
438.561	698.4
438.971	667.8
439.381	686.8
439.791	688.8
440.201	664
440.589	678.6
440.999	693.4
441.409	693.6
441.819	673.6
442.23	692.6
442.619	697
443.029	682.6
443.439	690.2
443.85	697.4
444.26	709.2
444.649	691.6
445.06	683.6
445.471	681.6
445.881	693.4
446.292	705.2
446.682	714.4
447.092	669
447.503	743.8
447.914	690.8
448.325	687.2
448.715	688.8
449.126	677.4
449.537	688.2
449.948	675.2
450.338	690.8
450.75	686.6
451.161	683.6
451.572	686.8
451.984	684.2
452.374	657.2
452.786	684.2
453.197	685.8
453.609	684.6
453.999	669
454.411	671.6
454.823	696
455.235	689
455.647	680.6
456.037	680.4
456.449	664.4
456.862	687.4
457.274	680.4
457.665	668
458.077	684.2
458.489	713.8
458.902	688
459.293	681
459.705	683
460.118	680
460.53	694.4
460.921	683.4
461.334	683.4
461.747	678.6
462.16	693.2
462.551	697.2
462.964	688.4
463.377	669
463.79	687.8
464.182	690.2
464.595	668.8
465.008	686.4
465.421	684.6
465.813	678.8
466.226	691.2
466.64	677.2
467.053	732.4
467.445	695.8
467.859	694
468.272	685.4
468.686	693.2
469.078	687.8
469.492	663
469.906	680.2
470.298	691
470.712	667.6
471.126	746.6
471.54	678
471.933	673.4
472.347	676.2
472.761	671.2
473.175	672.6
473.568	683.8
473.982	668.6
474.397	680.8
474.79	678.6
475.204	684.6
475.619	677.2
476.033	682.4
476.426	680.6
476.841	669.2
477.256	717
477.649	674.6
478.064	670.4
478.479	669.8
478.872	671.8
479.287	652.8
479.702	675.4
480.118	682.4
480.511	682.2
480.927	676
481.342	671.6
481.736	672.2
482.151	662.2
482.566	684.2
482.96	678.6
483.376	689
483.792	658.4
484.186	676.4
484.602	677.4
485.017	670.6
485.412	677.8
485.827	676.6
486.243	669.8
486.638	703.4
487.054	684.4
487.47	685
487.865	668
488.281	668
488.697	669.2
489.092	680
489.508	669.6
489.925	689.6
490.32	659.6
490.736	686.4
491.153	682
491.548	681.6
491.964	686.8
492.381	662.8
492.776	683
493.193	685.6
493.61	688.8
494.006	677.2
494.422	684.6
494.84	670.6
495.235	692.2
495.652	670
496.069	681.2
496.465	673.8
496.883	669.4
497.3	708.6
497.696	674.4
498.113	686.2
498.509	660.2
498.927	666
499.344	665.2
499.741	664.8
500.158	688.8
500.576	692.4
500.973	685.2
501.39	659
501.787	671.2
502.205	673.4
502.623	673.6
503.02	664.4
503.438	664.2
503.856	682.6
504.253	675.8
504.671	675.8
505.068	673.2
505.486	675
505.905	696.6
506.302	672.8
506.72	686.4
507.118	671.6
507.536	682
507.955	676.2
508.352	680.4
508.771	679.8
509.169	684.2
509.587	666
510.006	677.6
510.404	660.8
510.823	666.2
511.221	674.8
511.64	669.8
512.038	687.6
512.457	672.2
512.877	672.6
513.275	666.4
513.694	668.6
514.092	668.8
514.512	680.8
514.91	670.2
515.33	674.2
515.749	677.8
516.148	673.4
516.568	677.8
516.966	671.4
517.386	667.6
517.785	672.8
518.205	679.8
518.603	661.8
519.024	663.6
519.444	676.4
519.843	684.4
520.263	684.8
520.662	683.2
521.082	678.6
521.481	676.2
521.902	665.6
522.301	680.6
522.722	679.8
523.121	669.4
523.542	668.6
523.963	676.2
524.362	684.8
524.783	678.6
525.183	675
525.604	684.4
526.003	669.6
526.425	668.2
526.824	675.4
527.246	690.6
527.646	683
528.067	680.2
528.467	670.2
528.888	675.6
529.289	671.6
529.71	680.4
530.11	673.4
530.532	672.4
530.932	662.6
531.354	659.2
531.755	710
532.176	679
532.577	671.6
532.999	669.8
533.4	671.8
533.822	684.6
534.223	680.4
534.645	676.4
535.046	665.4
535.468	670.4
535.869	682.8
536.292	672.8
536.693	712.6
537.115	672.8
537.516	663.6
537.939	662.2
538.34	699.6
538.742	678.4
539.165	670.8
539.566	677.6
539.989	659.6
540.391	668.4
540.814	675.6
541.216	676.8
541.639	661
542.041	688.2
542.464	668
542.866	664.4
543.268	661.6
543.691	678
544.093	680
544.517	694.8
544.919	657
545.343	700.2
545.745	657.8
546.147	672.2
546.571	664.6
546.974	665.2
547.398	678.6
547.8	693.8
548.224	664.6
548.627	670.4
549.03	665.8
549.454	665
549.857	659.6
550.281	664.8
550.684	669
551.087	682.8
551.512	675.2
551.915	676.2
552.34	671.4
552.743	669
553.146	668.6
553.571	672.4
553.975	703.8
554.399	666.2
554.803	722.4
555.207	665
555.632	649.2
556.036	680
556.461	660.4
556.865	674.6
557.268	671.6
557.694	670.6
558.098	673.6
558.502	674.2
558.927	668.6
559.332	667
559.736	672.8
560.162	669.4
560.566	660.6
560.992	675.4
561.396	669.4
561.801	659.2
562.227	670.6
562.631	670.4
563.036	675.2
563.462	688.6
563.867	679
564.272	660.8
564.698	678.4
565.103	667.2
565.508	696
565.935	671.8
566.34	666.8
566.745	693
567.172	675.6
567.577	695.6
567.982	678.2
568.409	678
568.815	662.2
569.22	662.4
569.626	680.8
570.053	650
570.459	676.8
570.865	681.2
571.292	681.2
571.698	681.2
572.104	656
572.531	661.8
572.937	677.2
573.343	661.2
573.75	669.4
574.177	672.8
574.583	672
574.99	668.8
575.396	673
575.824	677
576.231	671
576.637	666.4
577.065	711
577.472	670
577.879	668
578.286	686
578.714	667.4
579.121	669.8
579.528	666.2
579.935	684.8
580.364	669.6
580.771	647.6
581.178	654.4
581.585	676.2
582.014	678
582.421	667
582.829	666.6
583.236	680.8
583.644	668.2
584.073	665
584.481	668.8
584.889	666.6
585.296	676.2
585.726	676.8
586.134	660.6
586.542	665.2
586.95	692.2
587.358	650.8
587.787	670.4
588.196	658.2
588.604	660.2
589.012	672
589.421	663.4
589.851	654.8
590.259	670.8
590.668	664.2
591.076	711
591.485	656.2
591.894	672.2
592.324	683.6
592.733	686
593.142	657
593.551	664.6
593.96	668.4
594.369	660.4
594.8	659
595.209	673
595.618	651.2
596.028	663.8
596.437	666
596.847	673.2
597.256	677.8
597.687	675
598.097	666.6
598.507	667.6
598.917	671.2
599.327	681
599.736	672.2
600.146	674
600.556	673.2
600.988	685
601.398	667
601.808	675.2
602.219	656.8
602.629	675.8
603.039	665.6
603.45	699.8
603.86	668.8
604.271	682.8
604.703	671.8
605.114	678.6
605.525	674.2
605.935	678.2
606.346	695.2
606.757	675
607.168	661.6
607.579	655.6
607.99	679.8
608.402	673.6
608.813	666.2
609.224	663.2
609.636	659.2
610.047	660.4
610.48	667.2
610.892	678.8
611.303	675.6
611.715	665.4
612.127	662
612.539	669.6
612.95	670.2
613.362	652.8
613.774	652
614.186	659.4
614.599	663.2
615.011	673.8
615.423	664
615.835	660.2
616.248	653
616.66	670
617.073	656.2
617.485	665.2
617.898	669.4
618.311	665.8
618.723	661.8
619.136	695.6
619.549	682
619.962	688.2
620.375	664.8
620.788	674.6
621.201	650
621.614	674.6
622.028	670
622.441	668.2
622.854	675.4
623.268	666.4
623.681	677.2
624.095	668.6
624.509	668.8
624.922	670.6
625.336	657.6
625.728	673.2
626.142	674.4
626.556	679
626.97	679.4
627.384	674
627.799	665.2
628.213	675.6
628.627	661.2
629.041	664.6
629.456	657
629.87	664.8
630.285	681.4
630.699	679
631.093	658.6
631.507	670.4
631.922	672.2
632.337	677.2
632.752	656.4
633.167	664
633.582	654.6
633.997	655.8
634.412	660.6
634.806	665.2
635.221	652.8
635.637	677.8
636.052	650.4
636.468	668.8
636.883	683.6
637.299	670.2
637.715	650.4
638.109	668
638.525	656.6
638.941	674.2
639.357	669.8
639.773	672.4
640.189	655.6
640.584	663.4
641	665.6
641.416	657.4
641.832	661.8
642.249	660.6
642.665	667
643.06	668.6
643.477	674
643.894	644.8
644.31	671.4
644.727	655
645.123	662
645.54	650.4
645.957	663
646.374	684.2
646.77	666.2
647.187	694.4
647.604	664.8
648.021	648
648.439	654.2
648.835	670.8
649.252	664.4
649.67	661
650.088	668.8
650.484	662.6
650.902	667.2
651.32	675
651.738	667.2
652.134	662.8
652.552	692.8
652.971	668.6
653.389	668.8
653.786	684.6
654.204	698.6
654.622	658.8
655.019	665.6
655.438	673.8
655.857	676.6
656.275	673.6
656.673	663.6
657.091	749
657.51	669.8
657.908	675.4
658.327	687.2
658.746	659.4
659.144	668.6
659.563	675.6
659.982	670.4
660.38	656
660.8	675.2
661.219	682.2
661.617	675.8
662.037	661.2
662.457	681.4
662.855	645
663.275	706.4
663.695	670.6
664.094	672
664.514	662.4
664.934	661.6
665.333	682.4
665.753	663.2
666.152	653.8
666.572	660.8
666.993	683
667.392	665
667.812	660.4
668.212	667.2
668.632	682
669.053	665.4
669.453	676.4
669.874	666.4
670.273	670
670.694	649.6
671.116	681.6
671.515	677.8
671.937	662.2
672.337	659.8
672.758	660
673.158	680.8
673.58	655
673.98	670.6
674.402	687.8
674.824	665.2
675.224	653.6
675.646	660.6
676.047	670.8
676.469	667.4
676.869	670
677.292	662.8
677.693	651
678.115	662.8
678.516	674.8
678.939	670.4
679.34	660.8
679.762	683.4
680.164	668.8
680.586	663.2
680.988	670.2
681.411	690.8
681.812	660.8
682.236	657
682.637	660.8
683.061	651.6
683.462	674
683.864	657.4
684.288	682.8
684.69	661
685.114	679.6
685.516	676.8
685.94	650.4
686.342	672.4
686.766	646.4
687.168	668.8
687.571	683.6
687.995	669.6
688.398	657.4
688.822	664.6
689.225	681.2
689.628	686.8
690.052	657.8
690.456	671.4
690.88	664
691.284	659
691.687	673.8
692.112	644.4
692.515	645
692.919	661
693.344	675.6
693.747	660.6
694.173	658.4
694.577	682.4
694.98	667.4
695.406	654.4
695.81	666.2
696.214	670
696.64	672
697.044	673.8
697.448	674.8
697.874	662.4
698.279	666.8
698.684	650
699.11	658.6
699.514	658.6
699.919	663.2
700.324	648.2
700.75	668.6
701.156	656.8
701.561	685
701.987	674.4
702.393	680.8
702.798	682.4
703.203	664.2
703.63	654.2
704.036	650.6
704.442	671.6
704.847	653.8
705.274	670.2
705.68	674.4
706.086	675.6
706.492	658.2
706.92	662.4
707.326	674.6
707.732	666.4
708.139	659.6
708.545	655
708.973	656.4
709.38	661.2
709.786	654.4
710.193	677.8
710.6	672.2
711.028	655.2
711.435	668.4
711.842	661.4
712.249	658.2
712.656	666.8
713.064	677.8
713.492	663.4
713.9	668.4
714.307	679
714.715	664.8
715.123	666.8
715.53	667
715.938	679.2
716.367	662
716.775	660.2
717.184	649
717.592	665.8
718	673.4
718.408	707.6
718.816	709.2
719.225	668.6
719.633	660.8
720.042	650.2
720.472	661
720.881	696.2
721.29	671.4
721.699	663.2
722.108	668.6
722.517	671.8
722.926	664.8
723.335	675.4
723.744	678
724.154	661
724.563	675
724.973	670.4
725.382	668.8
725.792	661.6
726.202	666.8
726.612	687.8
727.022	663
727.432	663.6
779.813	655.2
780.223	719.2
780.634	658
781.044	660
781.454	660.4
781.865	683.4
782.276	662.4
782.686	669.2
783.097	664.6
783.508	659.8
783.919	668.6
784.33	679.8
784.741	679.2
785.152	655
785.563	645.2
785.974	652.6
786.386	672
786.776	652
787.188	656.8
787.599	652
788.011	661.8
788.423	663.6
788.835	651.6
789.247	654
789.659	655
790.071	659.6
790.483	715.8
790.874	662.4
791.286	666.8
791.699	657.6
792.111	659.2
792.524	662
792.937	659.4
793.349	651.2
793.741	659.2
794.154	658.8
794.567	678.8
794.98	654.8
795.393	642.6
795.785	673.4
796.198	648.8
796.612	660.6
797.026	659.4
797.439	639.4
797.831	662.4
798.245	650.6
798.659	654.6
799.073	657.2
799.487	642.4
799.88	664.8
800.294	655
800.708	653.4
801.123	660.6
801.516	683.6
801.93	646
802.345	642.6
802.76	657.2
803.153	659.8
803.568	675.2
803.983	661.6
804.377	661.8
804.792	637.2
805.207	645.4
805.601	665.8
806.016	700.2
806.432	659.4
806.826	696.8
807.242	677.4
807.658	662.6
808.052	656
808.468	656.6
808.884	650.8
809.279	667
809.695	679.6
810.111	680.4
810.506	661.4
810.922	686.4
811.339	651.2
811.734	672.6
812.151	658
812.546	659
812.963	653.8
813.38	655.4
813.776	668.2
814.193	686.8
814.589	660.2
815.006	658.8
815.402	655.4
815.82	648.8
816.237	663
816.633	660.2
817.051	649.4
817.448	658.8
817.866	637.8
818.262	681.6
818.68	650.6
819.077	655.4
819.495	663.4
819.892	701.8
820.311	649.4
820.708	657
821.127	657
821.524	675.6
821.943	665
822.34	684.6
822.759	672
823.157	659
823.576	672.8
823.974	667.2
824.393	735.8
824.791	652.4
825.189	654
825.609	656.6
826.007	660.8
826.427	644
826.826	655.8
827.246	662.2
827.644	637.6
828.043	670
828.463	651.8
828.862	674.6
829.261	667.2
829.682	648.6
830.081	672.4
830.502	656.2
830.901	659.4
831.301	654.6
831.722	637.4
832.121	659.4
832.521	666
832.943	655
833.342	666
833.742	647.6
834.164	654.4
834.564	656.4
834.965	662.8
835.386	654.2
835.787	649.8
836.188	657.4
836.588	661.2
837.01	657.4
837.411	653.8
837.812	668.2
838.213	669.6
838.636	646.4
839.037	738
839.438	658.2
839.84	669.4
840.263	669.2
840.664	668
841.066	659
841.468	662.6
841.891	658.2
842.293	677.2
842.695	675.2
843.098	664.8
843.5	657
843.902	657
844.326	656.4
844.729	655
845.131	679
845.534	650.4
845.937	677.2
846.34	680.8
846.764	655.4
847.167	656.8
847.571	648.6
847.974	654.4
848.377	651.8
848.781	716.6
849.184	675.2
849.588	655.4
849.992	657.2
850.396	668.6
850.821	675
851.225	665
851.63	656.4
852.034	681
852.438	666.8
852.843	791.8
853.247	649.8
853.652	661.8
854.057	681.4
854.462	664.4
854.867	657.4
855.272	700.4
855.677	661.6
856.082	650.6
856.487	646.8
