#lambda/nm	C1
208.295	540.2
208.67	494
209.045	451.4
209.419	454.8
209.794	678.4
210.169	663.2
210.544	801
210.919	679.8
211.295	667
211.67	685.6
212.045	677.2
212.421	670.6
212.796	723
213.172	677.8
213.547	675.8
213.923	679.6
214.299	672.8
214.675	688.6
215.051	675.6
215.427	685.4
215.803	704.4
216.179	692.2
216.555	676.4
216.932	692.4
217.308	683.2
217.684	677.8
218.061	687
218.438	687.4
218.814	676.4
219.191	692.4
219.568	680.2
219.945	676.6
220.322	693.6
220.699	686
221.076	691
221.453	684
221.83	670.4
222.208	672.4
222.585	680.8
222.962	683.2
223.34	688.8
223.717	683
224.095	673
224.473	682.2
224.851	670.4
225.229	661.6
225.607	697.8
225.985	667.4
226.363	683
226.741	678.6
227.119	681.4
227.497	696.4
227.876	665.2
228.254	687.2
228.633	673.2
229.011	690.2
229.39	678.8
229.769	675.8
230.148	690.8
230.527	700.8
230.905	670.6
231.284	685.8
231.664	673.4
232.043	691.4
232.422	681.2
232.801	674.8
233.181	682.4
233.56	680.8
233.94	676
234.319	667.4
234.699	676.6
235.079	738.4
235.458	717.6
235.838	703
236.218	685.2
236.598	674.8
236.978	679
237.358	677.2
237.738	670.8
238.119	687.2
238.499	664.4
238.88	685.8
239.26	700.8
239.641	668.6
240.021	678.8
240.402	680.4
240.783	676.2
241.163	680.8
241.544	686.6
241.925	684.8
242.306	694.8
242.687	681
243.069	694.8
243.45	689.6
243.831	677.4
244.212	679.4
244.594	731.6
244.975	693.2
245.357	685.6
245.739	679.8
246.12	682.6
246.502	701.8
246.884	686.8
247.266	676.4
247.648	686
248.03	717.2
248.412	692.2
248.794	682.2
249.176	676.8
249.559	682.4
249.941	668.4
250.323	665.2
250.706	670.8
251.089	679.8
251.471	677
251.854	672.8
252.237	677
252.62	692.6
253.002	680.6
253.385	681.4
253.769	697.6
254.152	682
254.535	691.6
254.918	673.2
255.301	677
255.685	674.4
256.068	672.4
256.452	706
256.835	688
257.219	698.2
257.603	702.2
257.986	683.4
258.37	692.8
258.754	669.4
259.138	688.2
259.522	684.8
259.906	690
260.29	683
260.675	680.8
261.059	693.4
261.443	673.2
261.828	692.8
262.212	690.4
262.597	670
262.981	684.2
263.366	691.8
263.751	695.6
264.136	680.6
264.521	677
264.906	670.8
265.291	709
265.676	678.8
266.061	688.4
266.446	704.8
266.831	685.2
267.217	714
267.602	686.8
267.987	686.8
268.373	674.2
268.759	694.6
269.144	691.8
269.53	681.4
269.916	679
270.302	678.2
270.688	685.4
271.074	684.6
271.46	689.6
271.846	722.8
272.232	681.8
272.618	673.6
273.004	681.2
273.391	697.6
273.777	699
274.164	693.6
274.55	712
274.937	692.4
275.324	677.4
275.71	699
276.097	692.4
276.484	669.4
276.871	694.6
277.258	692.2
277.645	673.8
278.032	681.2
278.419	680.2
278.807	691.8
279.194	675.8
279.581	676.8
279.969	682.8
280.356	678.8
280.744	678.8
281.131	712.2
281.519	703.6
281.907	685.2
282.295	684.2
282.682	695.4
283.07	689
283.458	700
283.846	701.2
284.235	699.4
284.623	695
285.011	681.6
285.399	687.8
285.788	692.2
286.176	667.6
286.565	705.8
286.953	676
287.342	683.2
287.731	670.8
288.119	685.6
288.508	679.2
288.897	680.2
289.286	674.6
289.675	689.6
290.064	700
290.453	678
290.821	688.2
291.21	713
291.599	685.2
291.989	689.4
292.378	689.8
292.768	705.8
293.157	689.4
293.547	699.2
293.936	681.4
294.326	688
294.716	698.8
295.106	687
295.496	698.4
295.886	700.2
296.276	691.8
296.666	683.6
297.056	682.4
297.446	678.2
297.836	704.4
298.227	686
298.617	687
299.008	702.8
299.398	675.4
299.789	680.8
300.179	694.4
300.57	705.2
300.961	683.8
301.352	680.2
301.742	698.6
302.133	687
302.524	684.4
302.915	686.2
303.307	671.8
303.698	697
304.089	692.8
304.48	688
304.872	678.2
305.263	684.8
305.655	680.2
306.046	695.2
306.438	691.8
306.829	689.2
307.221	701.4
307.613	684.4
308.005	708.2
308.397	709.6
308.789	713.4
309.181	706.8
309.573	711.8
309.965	698.8
310.357	689
310.749	696.8
311.142	676.4
311.534	682.8
311.926	691.6
312.319	699.2
312.711	678.6
313.104	700.6
313.497	686.8
313.889	729.8
314.282	713.8
314.675	725.4
315.068	691.2
315.461	696.8
315.854	716.6
316.247	685.4
316.64	677.2
317.033	692
317.405	699.4
317.798	684.4
318.192	692.4
318.585	680.2
318.979	683
319.372	679.4
319.766	687.2
320.16	691.2
320.553	702.6
320.947	714.4
321.341	685
321.735	690.2
322.129	662.8
322.523	715.4
322.917	680.4
323.311	700
323.705	691.6
324.099	692.8
324.494	705.8
324.888	690.8
325.282	686.6
325.677	707.2
326.071	690.8
326.466	702.2
326.861	683
327.255	700.6
327.65	702.4
328.045	704.6
328.44	682.6
328.835	683.2
329.23	678.6
329.625	709.2
330.02	679
330.415	700.8
330.81	687.4
331.206	680.2
331.601	674.4
331.996	698.4
332.37	706.6
332.766	670.8
333.161	717.2
333.557	678.6
333.953	683.8
334.348	1060.6
334.744	681.2
335.14	678.6
335.536	685.4
335.932	697.4
336.328	671.4
336.724	690.8
337.12	687.6
337.516	689
337.913	684.2
338.309	696.4
338.705	684.2
339.102	697.6
339.498	676.2
339.895	691.4
340.291	674.6
340.688	694.2
341.085	678.8
341.481	687.4
341.878	693.4
342.275	709.2
342.672	686.4
343.069	683.4
343.466	676.8
343.842	693
344.239	678.2
344.636	678.6
345.033	678
345.431	676.4
345.828	681.6
346.225	681.2
346.623	719
347.02	691
347.418	702.8
347.816	700.6
348.213	678.8
348.611	692.2
349.009	667.6
349.407	704
349.805	680.8
350.203	672.2
350.601	697.8
350.999	682.8
351.397	740.4
351.795	688.2
352.193	693.4
352.57	700.4
352.969	704
353.367	663.8
353.766	682.8
354.164	677
354.563	692.4
354.961	675
355.36	676.2
355.759	691.4
356.158	665.4
356.557	669.2
356.956	667.8
357.355	672.8
357.754	693.8
358.153	686.4
358.552	707.2
358.951	674.6
359.35	697.6
359.75	686.8
360.149	675.8
360.527	662
360.926	666.4
361.326	677.6
361.726	679
362.125	675.4
362.525	687.6
362.925	677.8
363.325	684.2
363.724	683.4
364.124	678.2
364.524	676.4
364.924	676.2
365.324	694.8
365.725	659.6
366.125	694.2
366.525	680.2
366.904	671.8
367.304	669.2
367.705	693.2
368.105	686.4
368.506	679.4
368.906	678.2
369.307	674.6
369.708	679.4
370.108	664
370.509	689
370.91	672.8
371.311	685.8
371.712	685
372.113	684.8
372.514	667
372.894	682.2
373.295	666.8
373.696	691
374.097	681.2
374.499	707
374.9	684.4
375.301	670.2
375.703	688.8
376.105	671.2
376.506	690.4
376.908	687.2
377.309	677.8
377.711	682.6
378.113	670.4
378.493	680
378.895	680
379.297	690.6
379.699	663.8
380.102	685.2
380.504	694.6
380.906	677.8
381.308	709.4
381.71	678.2
382.113	685.4
382.515	675.4
382.918	688
383.299	675.2
383.701	694.6
384.104	683.8
384.507	666.8
384.909	681.8
385.312	667
385.715	671.2
386.118	677.4
386.521	664.4
386.924	683.8
387.327	668
387.709	664.6
388.112	662.6
388.515	675
388.918	670.6
389.322	685.2
389.725	669.6
390.129	711.2
390.532	683.4
390.936	674.2
391.339	665.6
391.743	692.4
392.125	665.6
392.529	697.8
392.933	694.8
393.337	677
393.74	680.6
394.144	674.2
394.548	673
394.953	674.2
395.357	680.8
395.761	667.6
396.144	680.4
396.548	672.2
396.952	675.4
397.357	680
397.761	675.8
398.166	673.8
398.57	678.2
398.975	670.2
399.379	679.4
399.763	729.4
400.168	678.6
400.572	683.2
400.977	679.4
401.382	705.2
401.787	685
402.192	692.2
402.597	697
403.002	671.4
403.386	696
403.791	692.8
404.197	667.2
404.602	682.2
405.007	680
405.413	680
405.818	677.2
406.224	675.6
406.608	674
407.014	674.2
407.42	692.6
407.825	673.6
408.231	690.4
408.637	682
409.043	698.4
409.449	674.6
409.834	671.8
410.24	685.8
410.646	693.8
411.052	690.6
411.458	679.8
411.865	692.6
412.271	681
412.677	681.4
413.062	677
413.469	671.2
413.875	709.8
414.282	697
414.689	685.2
415.095	688.2
415.502	674.6
415.888	679.8
416.294	673
416.701	736.2
417.108	667.4
417.515	688.2
417.923	679.8
418.33	704.6
418.715	694.6
419.123	675.2
419.53	677.8
419.937	681.6
420.345	688.6
420.752	672.4
421.16	695
421.546	679.4
421.953	689.8
422.361	667.6
422.769	682.2
423.177	675.8
423.585	711.8
423.992	707.8
424.379	688.2
424.787	695.8
425.195	698.6
425.603	676.2
426.011	691.8
426.419	699.4
426.806	686
427.214	686
427.623	697.8
428.031	698.6
428.44	686
428.848	703.2
429.235	708.4
429.644	693.8
430.053	677.6
430.461	701.6
430.87	717.6
431.279	690.6
431.666	679.6
432.075	682.4
432.484	690.4
432.893	687
433.302	723.4
433.711	741
434.099	696
434.508	681.6
434.918	678.2
435.327	702.4
435.737	696.4
436.125	699
436.534	703
436.944	698.2
437.353	705.4
437.763	719.6
438.173	687.6
438.561	719
438.971	691.6
439.381	706.6
439.791	709.4
440.201	680.2
440.589	713.4
440.999	714
441.409	716.8
441.819	711.6
442.23	721.6
442.619	729.6
443.029	724.8
443.439	729.6
443.85	738.6
444.26	744.4
444.649	737
445.06	729.8
445.471	722.4
445.881	728.8
446.292	752.2
446.682	768.6
447.092	721.6
447.503	798.2
447.914	746.8
448.325	735.4
448.715	743
449.126	732.4
449.537	750
449.948	740.4
450.338	738.8
450.75	751.4
451.161	747.4
451.572	747.8
451.984	736.6
452.374	728.4
452.786	734.8
453.197	752.6
453.609	756.4
453.999	718.4
454.411	726.4
454.823	758.2
455.235	754.6
455.647	743
456.037	744.8
456.449	720.6
456.862	743.2
457.274	747.2
457.665	737.4
458.077	747.8
458.489	778.8
458.902	744.4
459.293	741.8
459.705	752.4
460.118	736.2
460.53	744.6
460.921	747.4
461.334	752.6
461.747	751.6
462.16	759
462.551	764
462.964	755.2
463.377	730.2
463.79	739.4
464.182	756
464.595	742.6
465.008	755
465.421	764.2
465.813	747
466.226	757.6
466.64	741.4
467.053	806.2
467.445	759
467.859	770
468.272	749.8
468.686	760
469.078	758.4
469.492	733.4
469.906	753.6
470.298	758.8
470.712	744.6
471.126	800.2
471.54	732.4
471.933	734.6
472.347	745.2
472.761	747
473.175	733.6
473.568	749.4
473.982	734.4
474.397	752.6
474.79	746.4
475.204	753.8
475.619	749.8
476.033	747.4
476.426	749
476.841	734
477.256	767.8
477.649	730.8
478.064	735
478.479	736.2
478.872	749.2
479.287	723
479.702	749.6
480.118	741.6
480.511	739.4
480.927	740.6
481.342	740.2
481.736	749.2
482.151	734.6
482.566	750.8
482.96	750.6
483.376	755.2
483.792	731
484.186	738.4
484.602	734.8
485.017	744.2
485.412	733.2
485.827	746.2
486.243	738.4
486.638	764.6
487.054	742.4
487.47	768.8
487.865	734.4
488.281	736.2
488.697	728
489.092	733.6
489.508	724.8
489.925	751.8
490.32	729.6
490.736	739
491.153	739.8
491.548	733
491.964	744
492.381	714.4
492.776	739
493.193	736.4
493.61	734
494.006	729.4
494.422	737.8
494.84	718
495.235	741.4
495.652	720
496.069	720.8
496.465	709
496.883	735
497.3	745.4
497.696	724.4
498.113	733.4
498.509	707.8
498.927	715
499.344	708.2
499.741	724.2
500.158	731
500.576	740.8
500.973	725.8
501.39	713
501.787	713.6
502.205	720.4
502.623	719.4
503.02	713.8
503.438	705.6
503.856	716
504.253	726.2
504.671	720.4
505.068	714.6
505.486	712.4
505.905	738.4
506.302	716
506.72	727.4
507.118	713.8
507.536	722.2
507.955	709.6
508.352	706.6
508.771	731.4
509.169	720.4
509.587	704.8
510.006	707.4
510.404	709.4
510.823	702.8
511.221	705
511.64	707.4
512.038	725.4
512.457	717.6
512.877	709.2
513.275	699.4
513.694	705.6
514.092	704.4
514.512	717.4
514.91	705.6
515.33	710
515.749	706.2
516.148	713
516.568	700.4
516.966	701
517.386	701.2
517.785	705
518.205	709.2
518.603	695.6
519.024	708
519.444	707.8
519.843	713
520.263	716.4
520.662	705
521.082	706
521.481	699.8
521.902	699.4
522.301	698.2
522.722	704.6
523.121	688.8
523.542	698.6
523.963	701.8
524.362	708.6
524.783	694.8
525.183	695.8
525.604	696.2
526.003	688
526.425	683.6
526.824	691
527.246	702
527.646	705.6
528.067	702.4
528.467	700
528.888	703.2
529.289	692.2
529.71	698.6
530.11	694
530.532	689.2
530.932	684.4
531.354	682.2
531.755	732.4
532.176	703.4
532.577	689.4
532.999	692.4
533.4	685.8
533.822	706.8
534.223	690
534.645	686.4
535.046	686.2
535.468	685.8
535.869	704.2
536.292	678
536.693	727.4
537.115	690
537.516	681.2
537.939	669.2
538.34	698.6
538.742	703.2
539.165	684.8
539.566	676.8
539.989	673
540.391	676.6
540.814	684.4
541.216	687.2
541.639	692.6
542.041	698.6
542.464	680.8
542.866	675
543.268	673.4
543.691	682.2
544.093	686.4
544.517	699.6
544.919	672.8
545.343	706.6
545.745	678.6
546.147	677.8
546.571	684
546.974	676.2
547.398	691.6
547.8	701.6
548.224	673.4
548.627	673
549.03	684.6
549.454	679.8
549.857	671.4
550.281	677
550.684	673.2
551.087	697.6
551.512	684.4
551.915	685.4
552.34	689.4
552.743	674.6
553.146	682
553.571	680.6
553.975	702.8
554.399	675.8
554.803	733
555.207	675.8
555.632	666.2
556.036	677.8
556.461	666.8
556.865	681.8
557.268	670.4
557.694	677.8
558.098	685.6
558.502	685
558.927	674.6
559.332	680.2
559.736	680
560.162	683.4
560.566	677
560.992	670.6
561.396	680.2
561.801	677.6
562.227	671.8
562.631	665.6
563.036	675.2
563.462	682.6
563.867	682.6
564.272	660.2
564.698	677
565.103	664.6
565.508	696.8
565.935	674.6
566.34	672.4
566.745	694.2
567.172	671.2
567.577	692.8
567.982	689
568.409	680.6
568.815	667.2
569.22	668.8
569.626	687.8
570.053	661.6
570.459	675.6
570.865	689
571.292	673.8
571.698	683.4
572.104	661.2
572.531	668.8
572.937	682.4
573.343	674.6
573.75	666.4
574.177	671.6
574.583	684
574.99	673.2
575.396	679.2
575.824	667.2
576.231	675.2
576.637	673
577.065	693
577.472	677.2
577.879	665.2
578.286	686.4
578.714	662.4
579.121	663.4
579.528	675.2
579.935	681
580.364	679.6
580.771	649
581.178	662.4
581.585	681.6
582.014	676
582.421	655.6
582.829	668.6
583.236	677.2
583.644	659.4
584.073	670
584.481	674.6
584.889	656
585.296	684
585.726	665.2
586.134	657
586.542	665.2
586.95	686.2
587.358	665.6
587.787	671.4
588.196	665.6
588.604	664.4
589.012	671.2
589.421	661.2
589.851	661.6
590.259	673
590.668	669.4
591.076	708.6
591.485	657.6
591.894	662.8
592.324	678
592.733	685
593.142	662.2
593.551	670.2
593.96	702.8
594.369	658.4
594.8	649.8
595.209	656.8
595.618	656.8
596.028	667.8
596.437	657.8
596.847	672.4
597.256	664.2
597.687	672.2
598.097	670.8
598.507	658
598.917	666.8
599.327	670.8
599.736	671.2
600.146	680.6
600.556	668.8
600.988	680.4
601.398	676.6
601.808	673.2
602.219	650.6
602.629	668.4
603.039	669
603.45	695.2
603.86	669.6
604.271	686.2
604.703	672.6
605.114	663.2
605.525	673
605.935	670.2
606.346	696.4
606.757	674.2
607.168	664.2
607.579	653.2
607.99	679.6
608.402	664.4
608.813	680
609.224	661
609.636	654.2
610.047	654.4
610.48	662.4
610.892	663.6
611.303	680.6
611.715	660.2
612.127	660.8
612.539	659.8
612.95	661.6
613.362	656
613.774	654.4
614.186	659.8
614.599	661.2
615.011	682.4
615.423	658.4
615.835	667.2
616.248	651.4
616.66	673.2
617.073	649
617.485	656.4
617.898	668.8
618.311	661.4
618.723	662.8
619.136	697.4
619.549	679.2
619.962	683.6
620.375	655.6
620.788	663.4
621.201	657.2
621.614	671
622.028	662.2
622.441	668.4
622.854	677.8
623.268	657.6
623.681	670.6
624.095	665.8
624.509	672
624.922	669.6
625.336	651.2
625.728	663.4
626.142	672.4
626.556	677.8
626.97	674
627.384	659
627.799	661.6
628.213	668.2
628.627	664
629.041	652.8
629.456	658.8
629.87	663.4
630.285	675.4
630.699	672.4
631.093	665.4
631.507	665.6
631.922	675.4
632.337	675
632.752	652.4
633.167	660.6
633.582	659
633.997	652.4
634.412	656.8
634.806	666.8
635.221	644
635.637	671.6
636.052	656
636.468	664
636.883	680
637.299	657
637.715	646.8
638.109	659.8
638.525	647
638.941	673.6
639.357	666
639.773	673.6
640.189	658.6
640.584	652.4
641	657
641.416	651
641.832	650.2
642.249	658.6
642.665	661.6
643.06	662.6
643.477	667.6
643.894	635.2
644.31	657.6
644.727	653.2
645.123	648.6
645.54	650.8
645.957	658.8
646.374	674.6
646.77	649.2
647.187	683.8
647.604	663.8
648.021	634.8
648.439	656.8
648.835	663.8
649.252	657.4
649.67	653.6
650.088	650.8
650.484	666.6
650.902	665.6
651.32	666
651.738	665.4
652.134	662
652.552	678
652.971	656
653.389	651.4
653.786	674.6
654.204	679.4
654.622	654.4
655.019	659.6
655.438	658.8
655.857	659.4
656.275	666.8
656.673	654.8
657.091	739
657.51	653
657.908	657.2
658.327	672.6
658.746	650.6
659.144	660.6
659.563	678.2
659.982	665.8
660.38	651.8
660.8	659.8
661.219	672.8
661.617	658.8
662.037	666.4
662.457	667.6
662.855	654.2
663.275	701
663.695	667.8
664.094	648.8
664.514	670.2
664.934	647.6
665.333	671.4
665.753	655
666.152	643.4
666.572	642.6
666.993	670.6
667.392	652.6
667.812	660.8
668.212	652.6
668.632	669
669.053	651.8
669.453	662.8
669.874	654.2
670.273	662.2
670.694	651
671.116	670.2
671.515	670.2
671.937	656.2
672.337	662.6
672.758	653
673.158	666.2
673.58	646.6
673.98	660.2
674.402	670.6
674.824	653
675.224	652.2
675.646	647.8
676.047	655
676.469	653.4
676.869	665.2
677.292	660.6
677.693	656.8
678.115	654.4
678.516	672
678.939	664.6
679.34	655
679.762	671.2
680.164	665.6
680.586	650
680.988	667.2
681.411	694.2
681.812	649.4
682.236	644.4
682.637	653.6
683.061	650.8
683.462	660.6
683.864	661.4
684.288	658.6
684.69	645.8
685.114	673.2
685.516	673.4
685.94	651.8
686.342	673.4
686.766	656.2
687.168	655.2
687.571	673.2
687.995	658.2
688.398	648.4
688.822	658.4
689.225	674.6
689.628	675
690.052	655.6
690.456	661
690.88	657.4
691.284	656.4
691.687	668
692.112	646.6
692.515	646.2
692.919	659.8
693.344	661.2
693.747	661.2
694.173	652.2
694.577	670.6
694.98	659.4
695.406	656.4
695.81	673.2
696.214	662.2
696.64	665.4
697.044	655.2
697.448	668.2
697.874	661.4
698.279	660.6
698.684	648
699.11	653.8
699.514	654
699.919	660.2
700.324	652.8
700.75	656.8
701.156	657.8
701.561	667.2
701.987	667.6
702.393	670.4
702.798	673
703.203	661.8
703.63	647.4
704.036	662
704.442	656.2
704.847	650
705.274	662
705.68	659.4
706.086	662.8
706.492	643.6
706.92	657.2
707.326	673.8
707.732	647
708.139	651.8
708.545	650.6
708.973	654.2
709.38	656
709.786	651.4
710.193	680.2
710.6	661.6
711.028	648.2
711.435	647.6
711.842	658.6
712.249	650.8
712.656	657.4
713.064	671.8
713.492	650
713.9	649.4
714.307	668.4
714.715	658.6
715.123	660.4
715.53	659.6
715.938	679.2
716.367	665.8
716.775	654
717.184	646.8
717.592	653.8
718	675.8
718.408	700.6
718.816	705
719.225	657.8
719.633	659.4
720.042	643.2
720.472	651.6
720.881	676.8
721.29	661
721.699	641.6
722.108	658.8
722.517	661.8
722.926	656.2
723.335	662.6
723.744	659.8
724.154	655.2
724.563	659.6
724.973	655
725.382	648.2
725.792	653.4
726.202	653.4
726.612	680.2
727.022	658.4
727.432	647.8
779.813	643.8
780.223	709.6
780.634	644
781.044	650.8
781.454	664
781.865	665.8
782.276	643.4
782.686	664.4
783.097	656.2
783.508	653.4
783.919	654
784.33	662.4
784.741	678.6
785.152	646
785.563	637.2
785.974	650.6
786.386	667.6
786.776	652.2
787.188	652
787.599	647.6
788.011	665.6
788.423	656.8
788.835	651.6
789.247	640.6
789.659	639.8
790.071	649.4
790.483	701.8
790.874	653.2
791.286	661.6
791.699	660.8
792.111	660
792.524	665.2
792.937	657.8
793.349	646.2
793.741	649.8
794.154	653.8
794.567	668.2
794.98	646.2
795.393	631
795.785	664.4
796.198	645.2
796.612	643
797.026	656.2
797.439	630
797.831	646.4
798.245	637
798.659	638
799.073	646.8
799.487	644
799.88	650
800.294	653.6
800.708	646.2
801.123	653.4
801.516	669.4
801.93	633.8
802.345	634.4
802.76	642
803.153	663.2
803.568	664
803.983	663.8
804.377	650.2
804.792	643.8
805.207	633.8
805.601	653.2
806.016	679
806.432	652.8
806.826	689.6
807.242	672.6
807.658	659
808.052	650.4
808.468	652.8
808.884	640.8
809.279	658.6
809.695	662.6
810.111	679
810.506	661.2
810.922	684
811.339	655.4
811.734	666.4
812.151	651
812.546	651
812.963	648.2
813.38	662.8
813.776	650.2
814.193	676.4
814.589	645
815.006	641.2
815.402	650.4
815.82	652.2
816.237	656.6
816.633	656.4
817.051	650.4
817.448	661.8
817.866	645.8
818.262	672
818.68	646.8
819.077	654.2
819.495	655.6
819.892	700
820.311	648.2
820.708	633.4
821.127	648.2
821.524	662
821.943	660.2
822.34	668.6
822.759	660.2
823.157	653.4
823.576	664.4
823.974	663.2
824.393	739.6
824.791	636.6
825.189	638.6
825.609	648
826.007	659.6
826.427	639.4
826.826	649.4
827.246	658.6
827.644	637.4
828.043	667
828.463	651.8
828.862	665
829.261	665.4
829.682	642
830.081	664.6
830.502	649.2
830.901	658.2
831.301	654
831.722	644.4
832.121	651
832.521	643.6
832.943	651.2
833.342	656
833.742	643
834.164	650.2
834.564	642.2
834.965	649.2
835.386	639
835.787	651
836.188	654
836.588	658.6
837.01	660.4
837.411	649.6
837.812	663.6
838.213	650.4
838.636	648.6
839.037	732.2
839.438	655
839.84	657.6
840.263	659
840.664	662.6
841.066	649.2
841.468	659.4
841.891	653
842.293	662.2
842.695	653.2
843.098	661.4
843.5	648.6
843.902	660.6
844.326	661.4
844.729	653.6
845.131	673
845.534	658.4
845.937	662
846.34	678
846.764	632.8
847.167	662
847.571	641.6
847.974	650
848.377	652.2
848.781	707.2
849.184	672.6
849.588	652.8
849.992	650.6
850.396	648
850.821	666.8
851.225	657.8
851.63	643
852.034	668.6
852.438	655
852.843	694.2
853.247	645
853.652	642.8
854.057	674.2
854.462	647.6
854.867	656.4
855.272	692
855.677	663.2
