#lambda/nm	C1
208.295	538.4
208.67	489.2
209.045	447.4
209.419	451.4
209.794	682.4
210.169	668.2
210.544	797.8
210.919	692.6
211.295	659.6
211.67	689.4
212.045	673.8
212.421	681.2
212.796	720.8
213.172	676.2
213.547	673.2
213.923	683.4
214.299	671.6
214.675	685.8
215.051	684.8
215.427	698.4
215.803	711
216.179	691.2
216.555	672.6
216.932	683.2
217.308	680
217.684	681.8
218.061	696.4
218.438	688.2
218.814	679.8
219.191	690.6
219.568	669.8
219.945	685.4
220.322	699.4
220.699	691.4
221.076	692.4
221.453	684.8
221.83	676
222.208	674.2
222.585	685
222.962	683.6
223.34	687.4
223.717	675.8
224.095	680.2
224.473	689.6
224.851	678.2
225.229	675.2
225.607	702.8
225.985	674.2
226.363	677.2
226.741	685.6
227.119	677.6
227.497	705
227.876	674
228.254	696.2
228.633	697
229.011	684
229.39	688.2
229.769	693
230.148	683.2
230.527	707
230.905	677.4
231.284	680.8
231.664	669
232.043	696.4
232.422	688
232.801	668.2
233.181	694.6
233.56	683.8
233.94	691.8
234.319	676.4
234.699	682.4
235.079	740
235.458	728.4
235.838	709.8
236.218	668.2
236.598	668
236.978	675.8
237.358	674.6
237.738	673.6
238.119	692.4
238.499	673
238.88	690.6
239.26	710.2
239.641	673.2
240.021	678.6
240.402	685.4
240.783	680.2
241.163	680.4
241.544	683.2
241.925	684.2
242.306	697.8
242.687	678.6
243.069	690.4
243.45	694.8
243.831	676.2
244.212	674.4
244.594	721.2
244.975	694.6
245.357	687.4
245.739	671.4
246.12	694.8
246.502	698.4
246.884	684.8
247.266	683.4
247.648	686.6
248.03	712.2
248.412	691.8
248.794	699.2
249.176	676.2
249.559	695.2
249.941	677
250.323	671.2
250.706	672.8
251.089	681.4
251.471	692.6
251.854	693.4
252.237	686.6
252.62	694
253.002	681
253.385	682.2
253.769	691
254.152	676.2
254.535	696.8
254.918	673.4
255.301	680.6
255.685	689.2
256.068	681.2
256.452	709
256.835	695.6
257.219	696.4
257.603	701.8
257.986	668.8
258.37	691.8
258.754	675.8
259.138	693
259.522	701.4
259.906	686.4
260.29	690.8
260.675	689.6
261.059	677.8
261.443	674.4
261.828	689.6
262.212	691
262.597	675
262.981	671
263.366	689.4
263.751	689
264.136	675.2
264.521	681.8
264.906	670.4
265.291	699.4
265.676	680.6
266.061	687.2
266.446	704.2
266.831	676.8
267.217	711
267.602	688.4
267.987	683.6
268.373	673.4
268.759	693.2
269.144	684.4
269.53	690.4
269.916	682
270.302	683.6
270.688	682.6
271.074	689.8
271.46	701.2
271.846	727
272.232	687.8
272.618	676.6
273.004	681.2
273.391	702.4
273.777	700.4
274.164	679.6
274.55	698
274.937	688
275.324	685.2
275.71	700.6
276.097	691.6
276.484	692.2
276.871	691.6
277.258	689.6
277.645	669.4
278.032	685.2
278.419	684.2
278.807	688.8
279.194	677.2
279.581	680.4
279.969	696
280.356	683.4
280.744	681.4
281.131	712
281.519	697
281.907	691.4
282.295	675.6
282.682	698.2
283.07	691.6
283.458	695.6
283.846	697.6
284.235	692.8
284.623	704.8
285.011	681.4
285.399	685
285.788	687.8
286.176	686
286.565	694.8
286.953	678.8
287.342	684.4
287.731	671.8
288.119	673.4
288.508	685
288.897	685.4
289.286	669.2
289.675	690
290.064	690
290.453	676.8
290.821	677.6
291.21	696.2
291.599	680.4
291.989	685.6
292.378	693.2
292.768	701.2
293.157	693
293.547	695
293.936	681
294.326	680.4
294.716	684.6
295.106	680.6
295.496	692.8
295.886	700.4
296.276	683.2
296.666	677.8
297.056	691
297.446	681.2
297.836	704.8
298.227	687.2
298.617	684
299.008	693.6
299.398	682
299.789	671.4
300.179	684.4
300.57	693.2
300.961	679.2
301.352	678
301.742	698.4
302.133	690
302.524	687.8
302.915	685.6
303.307	688.2
303.698	700.2
304.089	695.2
304.48	683.4
304.872	687.4
305.263	685.8
305.655	678.6
306.046	692.6
306.438	690.4
306.829	684.2
307.221	697.6
307.613	696
308.005	696
308.397	702.8
308.789	712
309.181	717.6
309.573	703.6
309.965	693.8
310.357	682.2
310.749	708
311.142	677
311.534	680.4
311.926	689
312.319	678.2
312.711	677.8
313.104	696.8
313.497	682.2
313.889	735
314.282	696.2
314.675	713.2
315.068	687.6
315.461	690.6
315.854	722
316.247	693.6
316.64	690
317.033	692.6
317.405	702.2
317.798	682.6
318.192	693.8
318.585	679.6
318.979	691
319.372	681.2
319.766	680.6
320.16	703.6
320.553	703.2
320.947	713.6
321.341	686.6
321.735	691.2
322.129	676.2
322.523	715.4
322.917	680.4
323.311	707.6
323.705	688
324.099	692
324.494	708
324.888	706.2
325.282	686.4
325.677	705.6
326.071	692.2
326.466	708.2
326.861	695
327.255	698.8
327.65	707.6
328.045	714.6
328.44	698.6
328.835	682.2
329.23	681.4
329.625	721.2
330.02	686.6
330.415	708.8
330.81	686.8
331.206	701
331.601	676.4
331.996	695.4
332.37	716
332.766	683.2
333.161	713.4
333.557	688.8
333.953	698.4
334.348	1032.6
334.744	688.2
335.14	684
335.536	685
335.932	698
336.328	683.8
336.724	693.2
337.12	694.6
337.516	691.8
337.913	695.8
338.309	698
338.705	687.4
339.102	691.4
339.498	682.4
339.895	702
340.291	685.2
340.688	688
341.085	677.2
341.481	687.2
341.878	694.2
342.275	710.4
342.672	677.8
343.069	686.6
343.466	673.8
343.842	700.4
344.239	685.4
344.636	680.8
345.033	678.6
345.431	685.6
345.828	680.4
346.225	684.4
346.623	720.4
347.02	682.6
347.418	694.2
347.816	698.6
348.213	679.6
348.611	701.8
349.009	685.6
349.407	700
349.805	677.4
350.203	674
350.601	697.8
350.999	682.8
351.397	757.8
351.795	678
352.193	699.4
352.57	698
352.969	693
353.367	674.2
353.766	679.8
354.164	693.2
354.563	694.2
354.961	689.6
355.36	685
355.759	682.4
356.158	668.8
356.557	682.2
356.956	678.8
357.355	675.4
357.754	687.2
358.153	695
358.552	709
358.951	679.2
359.35	701
359.75	674.6
360.149	671.4
360.527	675
360.926	670.8
361.326	687
361.726	683.2
362.125	669.8
362.525	691.6
362.925	679.4
363.325	688.6
363.724	677.2
364.124	680.6
364.524	680.6
364.924	678.6
365.324	698.6
365.725	661.2
366.125	689.6
366.525	671.4
366.904	672.8
367.304	655.4
367.705	701.2
368.105	693
368.506	673.2
368.906	678.8
369.307	675.2
369.708	683.4
370.108	662
370.509	685
370.91	679.4
371.311	681.8
371.712	675.4
372.113	670
372.514	661.6
372.894	678.4
373.295	671.2
373.696	689.4
374.097	687
374.499	706.6
374.9	689.4
375.301	678.2
375.703	680.6
376.105	665.2
376.506	686.8
376.908	682.4
377.309	680.6
377.711	681.4
378.113	670.8
378.493	679
378.895	669.8
379.297	692.8
379.699	660.6
380.102	672.4
380.504	682.8
380.906	680
381.308	707.2
381.71	676.8
382.113	686.4
382.515	676.6
382.918	685
383.299	674.4
383.701	690.2
384.104	670.2
384.507	656.8
384.909	675
385.312	661
385.715	662.6
386.118	670.4
386.521	665.2
386.924	684.8
387.327	672
387.709	661.8
388.112	663.2
388.515	675.4
388.918	671.4
389.322	677.2
389.725	672.8
390.129	696.4
390.532	688.6
390.936	673
391.339	667.4
391.743	671.2
392.125	674.4
392.529	691.2
392.933	687.8
393.337	675
393.74	675.2
394.144	672.8
394.548	664.6
394.953	674.6
395.357	686.6
395.761	674.2
396.144	667.6
396.548	672.6
396.952	675
397.357	671.2
397.761	671.2
398.166	673.8
398.57	682.8
398.975	674.2
399.379	678.6
399.763	734
400.168	675.6
400.572	681.8
400.977	675.4
401.382	702.2
401.787	686.2
402.192	691
402.597	688.6
403.002	669.8
403.386	682.6
403.791	692
404.197	675
404.602	673.4
405.007	682
405.413	673.4
405.818	673.4
406.224	663.2
406.608	674.2
407.014	677.2
407.42	704.2
407.825	674.2
408.231	687
408.637	689
409.043	695.4
409.449	672.4
409.834	680.2
410.24	681
410.646	702
411.052	688.2
411.458	689.2
411.865	685.6
412.271	692.8
412.677	677.4
413.062	682.8
413.469	672
413.875	710.4
414.282	696.2
414.689	678.6
415.095	689.8
415.502	674.6
415.888	683.6
416.294	655.8
416.701	728.8
417.108	669
417.515	685.8
417.923	677.8
418.33	702.6
418.715	685
419.123	673.4
419.53	675.4
419.937	678.6
420.345	699
420.752	674.6
421.16	698.4
421.546	674.4
421.953	688.8
422.361	675.4
422.769	689.4
423.177	671.8
423.585	707.8
423.992	701.6
424.379	692.8
424.787	696.2
425.195	711.8
425.603	683
426.011	698.4
426.419	692.8
426.806	696.4
427.214	696.4
427.623	692.4
428.031	705.4
428.44	689.2
428.848	697.6
429.235	704.4
429.644	690.4
430.053	689.4
430.461	706.8
430.87	713.8
431.279	699
431.666	676.4
432.075	679.8
432.484	693.6
432.893	684
433.302	708.6
433.711	747.2
434.099	688.8
434.508	679.2
434.918	666.6
435.327	687.6
435.737	683.4
436.125	688.2
436.534	689.8
436.944	691.8
437.353	701.6
437.763	710
438.173	685
438.561	697.6
438.971	666.4
439.381	686.6
439.791	698.6
440.201	671.2
440.589	692.6
440.999	702.2
441.409	693.6
441.819	673.8
442.23	707
442.619	706.2
443.029	702.6
443.439	706
443.85	709.2
444.26	713.8
444.649	703.8
445.06	701
445.471	693.4
445.881	701
446.292	718.8
446.682	725.6
447.092	687.6
447.503	763
447.914	706.4
448.325	709.8
448.715	707.8
449.126	698.2
449.537	711.4
449.948	704.6
450.338	706.6
450.75	719.2
451.161	711.8
451.572	719.6
451.984	698.2
452.374	699.8
452.786	715.2
453.197	715.4
453.609	717.6
453.999	699.4
454.411	704.2
454.823	720.6
455.235	712.4
455.647	713.6
456.037	718.6
456.449	699.6
456.862	714.6
457.274	722.6
457.665	702.6
458.077	714.8
458.489	752
458.902	714.4
459.293	723.2
459.705	716
460.118	712.4
460.53	726.8
460.921	717.8
461.334	720.6
461.747	718.8
462.16	731.2
462.551	730.6
462.964	726.2
463.377	711
463.79	712.4
464.182	728.4
464.595	708.4
465.008	718.6
465.421	730.2
465.813	723
466.226	725.6
466.64	718.2
467.053	777.8
467.445	730.6
467.859	736.8
468.272	725
468.686	738.4
469.078	730.6
469.492	710.6
469.906	727.8
470.298	725.8
470.712	713.8
471.126	783.4
471.54	708.6
471.933	715.4
472.347	717.4
472.761	710.4
473.175	714
473.568	721.8
473.982	707.6
474.397	721.2
474.79	713.2
475.204	727.6
475.619	719.6
476.033	726.4
476.426	724.6
476.841	714
477.256	739.8
477.649	713.4
478.064	710
478.479	723.6
478.872	715.6
479.287	706.2
479.702	721.8
480.118	713.4
480.511	720.8
480.927	714
481.342	719.6
481.736	722.4
482.151	714.2
482.566	737.6
482.96	721.6
483.376	736
483.792	703.4
484.186	717.4
484.602	716.4
485.017	716.8
485.412	718.6
485.827	724.2
486.243	717.6
486.638	742.4
487.054	725.4
487.47	735.8
487.865	709.6
488.281	709.2
488.697	708.8
489.092	711.6
489.508	709.4
489.925	724.6
490.32	703
490.736	718.2
491.153	720.4
491.548	722.8
491.964	728.8
492.381	705.6
492.776	714
493.193	713.8
493.61	731.6
494.006	713.6
494.422	722.2
494.84	705.8
495.235	723
495.652	717.6
496.069	709.2
496.465	704.6
496.883	710.6
497.3	737.8
497.696	708.2
498.113	722
498.509	694
498.927	696.4
499.344	696
499.741	707
500.158	720.2
500.576	715.6
500.973	709.8
501.39	693
501.787	702.6
502.205	718
502.623	701
503.02	693.4
503.438	709.6
503.856	709
504.253	706.4
504.671	701.6
505.068	696
505.486	702.4
505.905	727.8
506.302	709.2
506.72	713.2
507.118	684.6
507.536	705.6
507.955	702.2
508.352	705.8
508.771	701.4
509.169	705
509.587	695.8
510.006	703
510.404	692.4
510.823	694.2
511.221	694.8
511.64	701.8
512.038	704.2
512.457	698.2
512.877	704.4
513.275	692.6
513.694	704
514.092	696
514.512	698
514.91	693.4
515.33	694.6
515.749	697.2
516.148	702.6
516.568	698.6
516.966	698.8
517.386	691.2
517.785	697
518.205	687.8
518.603	697
519.024	687.8
519.444	702.6
519.843	703
520.263	703
520.662	704.4
521.082	693.6
521.481	693
521.902	688.2
522.301	700
522.722	696.6
523.121	685
523.542	687.6
523.963	679.2
524.362	689.4
524.783	695
525.183	695.8
525.604	684.4
526.003	682.2
526.425	688.4
526.824	698.8
527.246	702.4
527.646	693.6
528.067	683.8
528.467	690
528.888	687
529.289	685.2
529.71	681.6
530.11	684.2
530.532	686.4
530.932	689.4
531.354	675.2
531.755	724.2
532.176	698.4
532.577	681.6
532.999	695.4
533.4	679.8
533.822	704.4
534.223	690.8
534.645	695.8
535.046	683.8
535.468	684.4
535.869	700.6
536.292	682
536.693	736.8
537.115	690.6
537.516	676.8
537.939	684.2
538.34	703.2
538.742	698.6
539.165	691.8
539.566	680.8
539.989	682.4
540.391	676
540.814	684.6
541.216	679.6
541.639	686.6
542.041	697.4
542.464	678.8
542.866	673.6
543.268	668.4
543.691	683.2
544.093	685.8
544.517	703.2
544.919	677.6
545.343	715.2
545.745	676.6
546.147	681
546.571	671.8
546.974	663
547.398	677.8
547.8	697.4
548.224	674
548.627	676.2
549.03	690.6
549.454	665.4
549.857	666.2
550.281	678.4
550.684	678.8
551.087	683.4
551.512	686.2
551.915	687.4
552.34	680
552.743	681
553.146	683.8
553.571	682.8
553.975	700.8
554.399	666.4
554.803	738
555.207	679.8
555.632	666.8
556.036	681.8
556.461	671.6
556.865	686
557.268	676.6
557.694	671.4
558.098	691.2
558.502	685.4
558.927	673.8
559.332	671.4
559.736	676.8
560.162	682.6
560.566	676
560.992	682.8
561.396	671.8
561.801	671.8
562.227	682
562.631	670.6
563.036	675.8
563.462	678.4
563.867	674
564.272	663.4
564.698	682.2
565.103	663.6
565.508	699.8
565.935	672
566.34	673.8
566.745	684.2
567.172	681.4
567.577	700.4
567.982	687.8
568.409	682.6
568.815	668.6
569.22	675.4
569.626	680.4
570.053	666.4
570.459	686.4
570.865	683
571.292	684.2
571.698	678.8
572.104	662.6
572.531	674
572.937	687
573.343	661
573.75	662.6
574.177	668
574.583	680.6
574.99	669.4
575.396	680.8
575.824	660.4
576.231	675
576.637	661.8
577.065	700.6
577.472	666.8
577.879	668
578.286	686
578.714	667.2
579.121	670.2
579.528	677.4
579.935	671.6
580.364	667.4
580.771	652.8
581.178	672.2
581.585	673
582.014	664.8
582.421	659.4
582.829	664.4
583.236	676.2
583.644	659.4
584.073	661.6
584.481	667.4
584.889	663
585.296	675
585.726	671.2
586.134	655.4
586.542	670.8
586.95	694
587.358	668.6
587.787	673.2
588.196	661.6
588.604	665.2
589.012	659
589.421	652
589.851	664.8
590.259	664.2
590.668	664.4
591.076	716.6
591.485	662.2
591.894	663.6
592.324	681.2
592.733	678.6
593.142	662.2
593.551	663.2
593.96	674.2
594.369	650.2
594.8	649.2
595.209	661.4
595.618	644.4
596.028	647.6
596.437	648.8
596.847	668.8
597.256	661.6
597.687	665.2
598.097	666
598.507	659
598.917	661.8
599.327	675.8
599.736	665
600.146	677
600.556	656.6
600.988	679.8
601.398	655
601.808	680.6
602.219	650.8
602.629	667.6
603.039	656.8
603.45	701.6
603.86	661.6
604.271	673.6
604.703	671
605.114	660.8
605.525	670
605.935	673.2
606.346	687.8
606.757	672.8
607.168	664.6
607.579	656.6
607.99	678.2
608.402	665.6
608.813	657.4
609.224	664
609.636	654.2
610.047	651.8
610.48	656.6
610.892	664.2
611.303	671.6
611.715	662.6
612.127	650.6
612.539	663.4
612.95	663.2
613.362	648.2
613.774	643.4
614.186	657.2
614.599	662.4
615.011	676.2
615.423	662.2
615.835	653.6
616.248	652
616.66	671
617.073	648.4
617.485	660
617.898	667.8
618.311	664
618.723	660.8
619.136	699
619.549	674
619.962	689
620.375	649.2
620.788	661.2
621.201	652.4
621.614	678
622.028	662
622.441	666.6
622.854	671.6
623.268	651.8
623.681	672.2
624.095	672.8
624.509	676.8
624.922	665.6
625.336	645.8
625.728	660.4
626.142	669.6
626.556	683.2
626.97	677
627.384	651.8
627.799	660.2
628.213	676.6
628.627	655.6
629.041	664.2
629.456	652.6
629.87	658
630.285	673.8
630.699	667.8
631.093	663.8
631.507	663.4
631.922	664.4
632.337	681.6
632.752	648.4
633.167	669.8
633.582	660
633.997	667.2
634.412	653.2
634.806	659.4
635.221	653.8
635.637	678
636.052	649.6
636.468	660.2
636.883	684
637.299	656.4
637.715	652
638.109	665.4
638.525	656.8
638.941	683.2
639.357	665.8
639.773	671
640.189	651
640.584	659.2
641	662.8
641.416	651.6
641.832	658.4
642.249	659.4
642.665	657.4
643.06	673.2
643.477	667.4
643.894	649
644.31	656.8
644.727	653.6
645.123	656.4
645.54	650.4
645.957	662.2
646.374	677.6
646.77	661.2
647.187	689.6
647.604	659.8
648.021	641
648.439	662.8
648.835	665.2
649.252	664.6
649.67	659.6
650.088	667.2
650.484	663.8
650.902	671.4
651.32	668.4
651.738	656.4
652.134	662.8
652.552	679
652.971	666
653.389	665
653.786	680
654.204	691.2
654.622	654.6
655.019	656.8
655.438	668.2
655.857	663
656.275	673.4
656.673	652.8
657.091	745
657.51	652.8
657.908	665.2
658.327	680.4
658.746	645.6
659.144	670.2
659.563	668.6
659.982	668.4
660.38	642.4
660.8	669
661.219	670.2
661.617	673.8
662.037	661.4
662.457	674.2
662.855	640.8
663.275	699
663.695	667
664.094	669.8
664.514	658.4
664.934	649
665.333	672.4
665.753	648.8
666.152	651.6
666.572	666
666.993	672.8
667.392	651.4
667.812	654.4
668.212	663.4
668.632	678.2
669.053	662.2
669.453	663
669.874	664.8
670.273	659.8
670.694	654.2
671.116	676.6
671.515	678.2
671.937	665.2
672.337	657
672.758	665.4
673.158	671
673.58	648.6
673.98	664
674.402	670.4
674.824	657
675.224	655.4
675.646	645.8
676.047	651.4
676.469	666
676.869	658
677.292	660.6
677.693	648.2
678.115	663
678.516	668
678.939	664.6
679.34	654.4
679.762	668
680.164	663.8
680.586	648.6
680.988	659.8
681.411	683.6
681.812	655.6
682.236	651.8
682.637	652
683.061	650.2
683.462	651.6
683.864	654
684.288	666
684.69	650
685.114	669.8
685.516	666.8
685.94	641.4
686.342	671.4
686.766	649.4
687.168	651.2
687.571	684.8
687.995	656
688.398	644.8
688.822	661.2
689.225	674.6
689.628	692
690.052	655.4
690.456	673
690.88	658
691.284	641.8
691.687	667.6
692.112	651.6
692.515	651.8
692.919	661.4
693.344	663
693.747	655.8
694.173	655
694.577	676.4
694.98	653.4
695.406	657.2
695.81	657.6
696.214	663.8
696.64	652.6
697.044	653.8
697.448	661.2
697.874	652.8
698.279	649.4
698.684	646.2
699.11	647.2
699.514	654.8
699.919	655.2
700.324	646.6
700.75	662
701.156	659.6
701.561	666.8
701.987	657.2
702.393	667.8
702.798	673.6
703.203	646.8
703.63	655
704.036	653.4
704.442	657.8
704.847	648.8
705.274	656
705.68	659.4
706.086	669.4
706.492	647.8
706.92	661.2
707.326	676.4
707.732	652
708.139	652.4
708.545	648.4
708.973	651
709.38	651.8
709.786	642.8
710.193	671.8
710.6	654
711.028	647.4
711.435	652.4
711.842	651
712.249	650
712.656	661.6
713.064	665.2
713.492	647.4
713.9	657.2
714.307	652.8
714.715	657
715.123	653
715.53	656.8
715.938	667.4
716.367	655.8
716.775	654.8
717.184	650.4
717.592	652.6
718	667.8
718.408	693.8
718.816	700.8
719.225	659.8
719.633	661.6
720.042	651.8
720.472	661.2
720.881	683.8
721.29	666.8
721.699	652.4
722.108	663.4
722.517	662.2
722.926	651
723.335	660
723.744	648.6
724.154	658.4
724.563	649.4
724.973	656.8
725.382	644.4
725.792	661.4
726.202	646
726.612	684
727.022	649
727.432	651.8
779.813	652.4
780.223	707
780.634	655.6
781.044	648.4
781.454	655.6
781.865	665.8
782.276	648.8
782.686	672.6
783.097	656.8
783.508	645.2
783.919	657
784.33	656.8
784.741	668.2
785.152	651.4
785.563	641.4
785.974	646
786.386	658
786.776	661.6
787.188	655.8
787.599	644.2
788.011	665.6
788.423	659.2
788.835	651.2
789.247	650.4
789.659	658.2
790.071	653.8
790.483	702.6
790.874	649
791.286	667
791.699	648.2
792.111	648.4
792.524	658.2
792.937	653
793.349	642.6
793.741	650.6
794.154	649.4
794.567	671.2
794.98	658
795.393	641.6
795.785	672.2
796.198	649.4
796.612	652.2
797.026	653.6
797.439	636.6
797.831	654
798.245	646.8
798.659	656
799.073	651.2
799.487	645.2
799.88	657.4
800.294	654.4
800.708	662.6
801.123	661.6
801.516	684.8
801.93	634.8
802.345	643.6
802.76	653.4
803.153	660.4
803.568	668.6
803.983	665.4
804.377	663
804.792	638.6
805.207	646.8
805.601	653.4
806.016	707.4
806.432	656.2
806.826	700.6
807.242	667.8
807.658	664.6
808.052	655
808.468	654
808.884	648.8
809.279	654.6
809.695	664.2
810.111	677.4
810.506	654.6
810.922	681.8
811.339	653.6
811.734	668.2
812.151	653
812.546	655.2
812.963	652.6
813.38	658.6
813.776	654.4
814.193	678.6
814.589	642.2
815.006	653.8
815.402	642.2
815.82	654.2
816.237	659.6
816.633	660.2
817.051	640.8
817.448	652.8
817.866	638.4
818.262	675.8
818.68	653.2
819.077	636
819.495	651.8
819.892	698.6
820.311	637.4
820.708	654
821.127	650.8
821.524	665.8
821.943	654.8
822.34	670.4
822.759	658.4
823.157	656.4
823.576	672.2
823.974	667.6
824.393	786.4
824.791	642.8
825.189	642.4
825.609	651.6
826.007	650
826.427	637.2
826.826	652.4
827.246	655.6
827.644	635.2
828.043	665.4
828.463	643.8
828.862	660.2
829.261	661.8
829.682	640.6
830.081	668.4
830.502	638.8
830.901	657.6
831.301	648.4
831.722	640.2
832.121	658.6
832.521	648.4
832.943	655.8
833.342	649.4
833.742	642
834.164	663.2
834.564	633.6
834.965	651.2
835.386	644.8
835.787	654
836.188	648
836.588	662.8
837.01	646.8
837.411	637
837.812	662.8
838.213	656.6
838.636	654
839.037	735.8
839.438	654.4
839.84	665.6
840.263	655.4
840.664	661.6
841.066	653.8
841.468	662.2
841.891	646.4
842.293	667.6
842.695	664.4
843.098	664.2
843.5	653
843.902	652.4
844.326	655
844.729	658
845.131	673
845.534	656.2
845.937	663.8
846.34	674
846.764	648.2
847.167	662.2
847.571	647.6
847.974	656.8
848.377	652.6
848.781	711.2
849.184	674.2
849.588	647
849.992	649.2
850.396	652.6
850.821	666.4
851.225	659
851.63	649.8
852.034	670.2
852.438	651.8
852.843	693.6
853.247	645.4
853.652	642.4
854.057	666.2
854.462	653.2
854.867	650.2
855.272	687.6
855.677	661.4
