#lambda/nm	C1
208.295	533.4
208.67	488.8
209.045	451
209.419	446.8
209.794	680.6
210.169	653.4
210.544	813.2
210.919	684.2
211.295	674.2
211.67	688.8
212.045	676.4
212.421	676.4
212.796	731.6
213.172	673.6
213.547	674.8
213.923	682.6
214.299	677.4
214.675	683.8
215.051	684.4
215.427	699.6
215.803	699.8
216.179	689.6
216.555	676.2
216.932	686.2
217.308	675.8
217.684	686.2
218.061	685.2
218.438	677.4
218.814	673.6
219.191	697.6
219.568	670
219.945	671.4
220.322	690
220.699	690
221.076	696.2
221.453	683.2
221.83	673.2
222.208	666.4
222.585	674.2
222.962	691
223.34	681.2
223.717	692.6
224.095	682.6
224.473	685.8
224.851	675.6
225.229	669
225.607	698.6
225.985	673.8
226.363	681.2
226.741	684.4
227.119	682.4
227.497	694.8
227.876	666.4
228.254	688
228.633	689.4
229.011	682.8
229.39	683
229.769	685.4
230.148	687.4
230.527	695.2
230.905	675.8
231.284	679.8
231.664	677.2
232.043	691
232.422	689.6
232.801	669.8
233.181	694.4
233.56	679
233.94	683.6
234.319	674
234.699	677.2
235.079	731.8
235.458	724.6
235.838	699.2
236.218	681.2
236.598	671
236.978	674.2
237.358	682.4
237.738	674.8
238.119	692
238.499	666.2
238.88	676.4
239.26	692.6
239.641	664.8
240.021	684
240.402	682.6
240.783	680
241.163	680
241.544	682.4
241.925	674.6
242.306	694.4
242.687	678.8
243.069	687.2
243.45	697.2
243.831	676.8
244.212	681.4
244.594	716.6
244.975	692.2
245.357	683
245.739	672.6
246.12	676.2
246.502	689.2
246.884	689.4
247.266	675.4
247.648	686.2
248.03	716.2
248.412	681.6
248.794	691.4
249.176	678
249.559	686.6
249.941	671.6
250.323	677
250.706	676.4
251.089	684.4
251.471	700.6
251.854	691
252.237	678
252.62	689.2
253.002	687.2
253.385	680.6
253.769	697.6
254.152	684
254.535	677
254.918	678.2
255.301	682
255.685	673
256.068	667
256.452	711
256.835	689
257.219	687
257.603	704.2
257.986	674
258.37	688.4
258.754	681
259.138	677.2
259.522	698.2
259.906	684.6
260.29	696.2
260.675	675
261.059	674
261.443	665.2
261.828	686.6
262.212	687.2
262.597	668.2
262.981	684.4
263.366	696
263.751	687.4
264.136	677.2
264.521	677
264.906	670.6
265.291	696.2
265.676	673.6
266.061	684.8
266.446	710
266.831	687
267.217	699.4
267.602	679
267.987	685.2
268.373	675.4
268.759	691.2
269.144	688.2
269.53	674
269.916	671.6
270.302	670.4
270.688	682.4
271.074	683
271.46	690.8
271.846	706.6
272.232	678
272.618	676
273.004	681.4
273.391	682.8
273.777	694
274.164	688
274.55	696
274.937	677.2
275.324	678.8
275.71	696.4
276.097	690.8
276.484	667.2
276.871	687.8
277.258	693.8
277.645	665.6
278.032	683
278.419	685.2
278.807	682.6
279.194	672.4
279.581	681.4
279.969	695.4
280.356	685
280.744	681.8
281.131	709.6
281.519	687.8
281.907	673.6
282.295	674.8
282.682	693.6
283.07	688.4
283.458	692.2
283.846	698.4
284.235	691.4
284.623	688.4
285.011	669.6
285.399	679.6
285.788	678
286.176	676.8
286.565	691.8
286.953	685.2
287.342	683.6
287.731	677.4
288.119	679.6
288.508	684.8
288.897	672.6
289.286	682
289.675	691
290.064	691
290.453	678.4
290.821	680
291.21	696.4
291.599	678
291.989	687.8
292.378	689
292.768	708
293.157	696.2
293.547	700.4
293.936	679.8
294.326	674.2
294.716	686.2
295.106	683.8
295.496	692.8
295.886	695.4
296.276	680.6
296.666	673.6
297.056	684.4
297.446	673.4
297.836	699
298.227	682.2
298.617	697.6
299.008	701.6
299.398	688.6
299.789	673.6
300.179	697.8
300.57	705.6
300.961	689.4
301.352	679.4
301.742	702.8
302.133	694.6
302.524	685.6
302.915	685.6
303.307	676
303.698	693.6
304.089	695.6
304.48	682.6
304.872	691.2
305.263	680
305.655	683.4
306.046	697
306.438	688.2
306.829	685.4
307.221	708.4
307.613	699.2
308.005	703.8
308.397	703.6
308.789	703.6
309.181	716.2
309.573	710.4
309.965	696.6
310.357	685.8
310.749	705
311.142	675
311.534	679.4
311.926	690
312.319	680.2
312.711	685
313.104	701.8
313.497	681.8
313.889	727.4
314.282	711.8
314.675	716.6
315.068	681
315.461	696.4
315.854	724.2
316.247	695.6
316.64	684.2
317.033	688.6
317.405	695
317.798	698.2
318.192	689.6
318.585	680
318.979	689.6
319.372	679.6
319.766	687.2
320.16	703.4
320.553	700.8
320.947	715.6
321.341	684.2
321.735	687.2
322.129	670
322.523	714.8
322.917	674
323.311	697.2
323.705	689.4
324.099	689.6
324.494	706.6
324.888	704.4
325.282	685.6
325.677	702.4
326.071	699.4
326.466	709
326.861	689.2
327.255	700.8
327.65	696.2
328.045	712
328.44	693
328.835	688.8
329.23	680.2
329.625	723.6
330.02	692.6
330.415	712
330.81	687.6
331.206	686.6
331.601	686.4
331.996	687
332.37	715.6
332.766	672.8
333.161	710
333.557	676.8
333.953	685.2
334.348	1008.8
334.744	686.8
335.14	672.4
335.536	688.4
335.932	705.6
336.328	683.8
336.724	693.2
337.12	683
337.516	688.2
337.913	685
338.309	692.8
338.705	680.2
339.102	702.4
339.498	681.2
339.895	704.8
340.291	678
340.688	696.6
341.085	680.4
341.481	686.2
341.878	675.8
342.275	709.8
342.672	676.8
343.069	679.6
343.466	669.4
343.842	697.8
344.239	677.2
344.636	684.8
345.033	672.2
345.431	677
345.828	682
346.225	686
346.623	725
347.02	690.2
347.418	692
347.816	698
348.213	676.2
348.611	700.8
349.009	671.8
349.407	697.6
349.805	675
350.203	672.6
350.601	685.4
350.999	684.8
351.397	728.6
351.795	687.4
352.193	694.4
352.57	697.2
352.969	701
353.367	668.6
353.766	678.4
354.164	683.8
354.563	700
354.961	683.8
355.36	679
355.759	679.2
356.158	676.6
356.557	678.2
356.956	671.4
357.355	666
357.754	687
358.153	683
358.552	710.6
358.951	676.2
359.35	700.6
359.75	674.6
360.149	679.8
360.527	670.4
360.926	668.4
361.326	687.6
361.726	678.2
362.125	679.4
362.525	695.8
362.925	672.6
363.325	675
363.724	681.8
364.124	675
364.524	672.8
364.924	681.6
365.324	686.2
365.725	664.2
366.125	696.6
366.525	676.4
366.904	676
367.304	656
367.705	693.2
368.105	689.4
368.506	679.2
368.906	685
369.307	678.2
369.708	681.2
370.108	665.4
370.509	693.6
370.91	675.8
371.311	681.8
371.712	681
372.113	685
372.514	666.8
372.894	678.2
373.295	673
373.696	691.8
374.097	688.4
374.499	711.8
374.9	676.6
375.301	662
375.703	668.6
376.105	662.2
376.506	678.8
376.908	684
377.309	674.6
377.711	661.6
378.113	669.4
378.493	674.6
378.895	667.2
379.297	685
379.699	661.6
380.102	675
380.504	681.8
380.906	669.8
381.308	701.6
381.71	673.8
382.113	681.6
382.515	678
382.918	669.6
383.299	681
383.701	689.8
384.104	675
384.507	664.2
384.909	679.6
385.312	666
385.715	667.4
386.118	672
386.521	654.4
386.924	693.4
387.327	670.2
387.709	660.6
388.112	649.2
388.515	674.2
388.918	668
389.322	676.8
389.725	675.2
390.129	702.6
390.532	678
390.936	669.6
391.339	668.6
391.743	664.4
392.125	666.6
392.529	692.4
392.933	685
393.337	680.8
393.74	681.6
394.144	678.8
394.548	659.2
394.953	672.2
395.357	680
395.761	673
396.144	682.4
396.548	685.4
396.952	673.2
397.357	680.4
397.761	672.8
398.166	679
398.57	685.4
398.975	660.4
399.379	680.6
399.763	728
400.168	683
400.572	671.2
400.977	679.4
401.382	697.2
401.787	685.6
402.192	690
402.597	694.4
403.002	666.4
403.386	685.8
403.791	700.4
404.197	672
404.602	672
405.007	683.8
405.413	676
405.818	676.2
406.224	666.6
406.608	673
407.014	668
407.42	696.4
407.825	675.6
408.231	691.6
408.637	688
409.043	694.8
409.449	669.2
409.834	668.4
410.24	676.8
410.646	691.4
411.052	691.4
411.458	676.2
411.865	683.8
412.271	694.4
412.677	681
413.062	692.2
413.469	667.4
413.875	712.2
414.282	697.2
414.689	682.6
415.095	692.6
415.502	669.2
415.888	684.2
416.294	670.6
416.701	727.4
417.108	670.8
417.515	688
417.923	675.2
418.33	690.6
418.715	690.4
419.123	680.2
419.53	675.2
419.937	683.4
420.345	704.8
420.752	684.8
421.16	696.6
421.546	684.6
421.953	689.2
422.361	669
422.769	678.2
423.177	674.4
423.585	705.8
423.992	701.6
424.379	697.6
424.787	685.8
425.195	700
425.603	691.2
426.011	698.8
426.419	690.4
426.806	684.6
427.214	685
427.623	709.4
428.031	697.4
428.44	688
428.848	699.2
429.235	697.6
429.644	687.2
430.053	691.4
430.461	702.8
430.87	719.6
431.279	697.8
431.666	671.4
432.075	688.2
432.484	690.6
432.893	678.8
433.302	698.6
433.711	736
434.099	695.8
434.508	692
434.918	679
435.327	700.8
435.737	692.6
436.125	696.8
436.534	689.8
436.944	701.4
437.353	706.6
437.763	719.2
438.173	693.4
438.561	714.6
438.971	681.6
439.381	701.8
439.791	704.2
440.201	688
440.589	724.2
440.999	723.6
441.409	714.4
441.819	708.4
442.23	736.6
442.619	739.4
443.029	736.2
443.439	730
443.85	751.4
444.26	755.4
444.649	750.6
445.06	738.4
445.471	749.6
445.881	749.4
446.292	772.6
446.682	772.4
447.092	734.2
447.503	817.6
447.914	760.6
448.325	760
448.715	756
449.126	762.4
449.537	764
449.948	758.4
450.338	772.6
450.75	778.8
451.161	772.4
451.572	774
451.984	771.4
452.374	750
452.786	769.2
453.197	779.2
453.609	782
453.999	768.8
454.411	764.4
454.823	779.6
455.235	775.8
455.647	767
456.037	789
456.449	763.6
456.862	779
457.274	777.8
457.665	768.4
458.077	787
458.489	811
458.902	783.6
459.293	794
459.705	796
460.118	769.8
460.53	787.6
460.921	784.6
461.334	787.6
461.747	785.4
462.16	795.6
462.551	799.4
462.964	791.4
463.377	773.6
463.79	795
464.182	803.2
464.595	779.6
465.008	802.2
465.421	804
465.813	791
466.226	803.4
466.64	801
467.053	845.2
467.445	811.8
467.859	810.8
468.272	803.2
468.686	816.2
469.078	797.8
469.492	791.4
469.906	805.8
470.298	800.2
470.712	798
471.126	858.2
471.54	784.4
471.933	784.2
472.347	790.6
472.761	787.8
473.175	773.2
473.568	788.2
473.982	790.4
474.397	800.6
474.79	791.8
475.204	802.2
475.619	798.4
476.033	791.2
476.426	789.4
476.841	795.4
477.256	820.2
477.649	784.8
478.064	779.8
478.479	779.4
478.872	783.4
479.287	763.6
479.702	777.4
480.118	792.8
480.511	788.6
480.927	780
481.342	773
481.736	796.8
482.151	781.8
482.566	797.2
482.96	792.4
483.376	796.4
483.792	784.8
484.186	786.4
484.602	794.6
485.017	793.8
485.412	785
485.827	795.4
486.243	790.8
486.638	813.2
487.054	793.8
487.47	804.4
487.865	776.6
488.281	788.6
488.697	780
489.092	783.6
489.508	774.2
489.925	801
490.32	780
490.736	788.8
491.153	783.2
491.548	780.6
491.964	785.6
492.381	763.4
492.776	782
493.193	771.4
493.61	783.8
494.006	767.8
494.422	788
494.84	760.2
495.235	781.2
495.652	770
496.069	774.2
496.465	770
496.883	767.6
497.3	799.4
497.696	767.8
498.113	781.4
498.509	746.6
498.927	766.2
499.344	760.8
499.741	765
500.158	769.4
500.576	785
500.973	772.8
501.39	760
501.787	758.4
502.205	758.8
502.623	765.2
503.02	746
503.438	758
503.856	766.8
504.253	751
504.671	755.6
505.068	749.4
505.486	755.4
505.905	774
506.302	761.2
506.72	765
507.118	749
507.536	753.6
507.955	742.4
508.352	761.2
508.771	754.4
509.169	757.6
509.587	740.4
510.006	753.2
510.404	730.4
510.823	739.2
511.221	741.6
511.64	734.6
512.038	766
512.457	743
512.877	737.6
513.275	734.6
513.694	734.8
514.092	741.6
514.512	744
514.91	731.4
515.33	736.4
515.749	745.6
516.148	736
516.568	739
516.966	730.2
517.386	730.6
517.785	728.6
518.205	728.8
518.603	726.8
519.024	730.2
519.444	732.8
519.843	742.4
520.263	743
520.662	739
521.082	727
521.481	739.6
521.902	727.8
522.301	731.4
522.722	727
523.121	717.6
523.542	715.2
523.963	716.4
524.362	729.2
524.783	731.6
525.183	724.6
525.604	718.2
526.003	701
526.425	713
526.824	722
527.246	727.6
527.646	721
528.067	727.6
528.467	711.8
528.888	723.8
529.289	717.8
529.71	716
530.11	715.4
530.532	717.6
530.932	707
531.354	693.2
531.755	747.6
532.176	718
532.577	715.6
532.999	709.6
533.4	701.2
533.822	721.4
534.223	711
534.645	708
535.046	706.8
535.468	711.4
535.869	719.6
536.292	696
536.693	752.2
537.115	706
537.516	701.8
537.939	704.2
538.34	724.4
538.742	715.8
539.165	709
539.566	704
539.989	699.4
540.391	701
540.814	706.4
541.216	707.2
541.639	699.2
542.041	716.6
542.464	695.6
542.866	692.6
543.268	682.6
543.691	695.6
544.093	709.6
544.517	723.6
544.919	692.8
545.343	726
545.745	693.2
546.147	702.4
546.571	690.8
546.974	691.4
547.398	704
547.8	711.4
548.224	695.6
548.627	686.6
549.03	701
549.454	687.8
549.857	690.6
550.281	691
550.684	690
551.087	707.8
551.512	697
551.915	703.8
552.34	697.8
552.743	696.6
553.146	700.8
553.571	694.2
553.975	715
554.399	683
554.803	752.2
555.207	693.8
555.632	681.6
556.036	697
556.461	683.6
556.865	700.4
557.268	688.6
557.694	690.8
558.098	695.4
558.502	699.8
558.927	682.6
559.332	689.2
559.736	688.2
560.162	688.2
560.566	682.4
560.992	686.8
561.396	683.8
561.801	685.2
562.227	686.4
562.631	685
563.036	691.4
563.462	696.6
563.867	684.6
564.272	672.8
564.698	694.2
565.103	679.4
565.508	709.4
565.935	683.2
566.34	675.8
566.745	696
567.172	674.6
567.577	699.2
567.982	695.2
568.409	683.8
568.815	667.2
569.22	685.4
569.626	687.8
570.053	669.8
570.459	679.2
570.865	684
571.292	684
571.698	678
572.104	667.6
572.531	675.4
572.937	696.2
573.343	686.4
573.75	672.8
574.177	680.4
574.583	693.6
574.99	677.8
575.396	677.4
575.824	677.6
576.231	681.6
576.637	673.2
577.065	711
577.472	679.8
577.879	675.2
578.286	691.4
578.714	661.8
579.121	674.8
579.528	675
579.935	691
580.364	674.8
580.771	659.2
581.178	663.2
581.585	669.4
582.014	674.2
582.421	663.8
582.829	667.4
583.236	674.4
583.644	652
584.073	667.4
584.481	670.4
584.889	657.2
585.296	671.8
585.726	667
586.134	664
586.542	667
586.95	686.8
587.358	664
587.787	671
588.196	658.2
588.604	670.2
589.012	663
589.421	660.6
589.851	668
590.259	673
590.668	673.4
591.076	712
591.485	666.4
591.894	667
592.324	680.8
592.733	686.8
593.142	658
593.551	663
593.96	669.6
594.369	651.2
594.8	656.2
595.209	667.2
595.618	649.6
596.028	656.4
596.437	654.2
596.847	669.2
597.256	683.6
597.687	664.8
598.097	671.6
598.507	657
598.917	671.4
599.327	679.6
599.736	669.2
600.146	670.8
600.556	663.2
600.988	681.2
601.398	670.2
601.808	676.2
602.219	650.8
602.629	668
603.039	671
603.45	698
603.86	664.6
604.271	691.4
604.703	674.4
605.114	662.2
605.525	665.8
605.935	664
606.346	684
606.757	667.6
607.168	666
607.579	658.4
607.99	672.8
608.402	663.6
608.813	668
609.224	661
609.636	657
610.047	660.2
610.48	670.8
610.892	675.6
611.303	674.2
611.715	663.8
612.127	658.4
612.539	668.6
612.95	669.6
613.362	653.8
613.774	653.2
614.186	661.2
614.599	657.8
615.011	673.6
615.423	670.8
615.835	662.6
616.248	654
616.66	670.6
617.073	653.8
617.485	664.4
617.898	666
618.311	667
618.723	662.6
619.136	695
619.549	684
619.962	691
620.375	661.4
620.788	662
621.201	662.8
621.614	667.2
622.028	660.4
622.441	674.6
622.854	675.6
623.268	653.6
623.681	669.8
624.095	663.2
624.509	675.6
624.922	669
625.336	656.2
625.728	660
626.142	674.6
626.556	688.6
626.97	658.2
627.384	652.2
627.799	663.2
628.213	668.4
628.627	664.2
629.041	660.8
629.456	661
629.87	662.2
630.285	665.4
630.699	672.4
631.093	661.8
631.507	669.4
631.922	666.6
632.337	681.6
632.752	658
633.167	662
633.582	652.4
633.997	660.2
634.412	659.2
634.806	661.4
635.221	654.4
635.637	683.2
636.052	652.6
636.468	664.2
636.883	690
637.299	657.2
637.715	644.4
638.109	660
638.525	655.8
638.941	680
639.357	672.8
639.773	675.8
640.189	658.8
640.584	666
641	657.8
641.416	652
641.832	661.8
642.249	647.2
642.665	664.8
643.06	667.8
643.477	668.6
643.894	648.4
644.31	661.8
644.727	655
645.123	657.8
645.54	648.4
645.957	651.8
646.374	682.4
646.77	660.6
647.187	686.4
647.604	654
648.021	650.4
648.439	649.8
648.835	661
649.252	657
649.67	650.4
650.088	658.2
650.484	663.2
650.902	662.8
651.32	665.8
651.738	659.8
652.134	659.8
652.552	682.6
652.971	665.6
653.389	654.2
653.786	675.6
654.204	691.6
654.622	652
655.019	666
655.438	665.6
655.857	668.2
656.275	662.6
656.673	648.4
657.091	740.2
657.51	656.8
657.908	670.2
658.327	676.8
658.746	647.6
659.144	665.8
659.563	686.8
659.982	663.2
660.38	645.6
660.8	652.8
661.219	668.8
661.617	666.2
662.037	664
662.457	668.6
662.855	647.2
663.275	702
663.695	653.2
664.094	667.2
664.514	659.2
664.934	650.6
665.333	668
665.753	651.4
666.152	648.8
666.572	646.6
666.993	674.2
667.392	659.4
667.812	659.8
668.212	653.6
668.632	664.6
669.053	650.6
669.453	663.2
669.874	671
670.273	666
670.694	649.2
671.116	673.2
671.515	673.2
671.937	655
672.337	655.6
672.758	653.2
673.158	676
673.58	647.4
673.98	660.6
674.402	676
674.824	655.8
675.224	651.8
675.646	646.8
676.047	645.8
676.469	662.2
676.869	669
677.292	656.6
677.693	656
678.115	654.4
678.516	667.8
678.939	671.8
679.34	651.6
679.762	677.4
680.164	662.4
680.586	653.8
680.988	666.4
681.411	687.8
681.812	648
682.236	651
682.637	643.2
683.061	646.4
683.462	665.4
683.864	656.8
684.288	663.2
684.69	647
685.114	657.6
685.516	663.8
685.94	640.4
686.342	668.2
686.766	643.6
687.168	644.8
687.571	667.6
687.995	647.2
688.398	631
688.822	643.4
689.225	665
689.628	674.8
690.052	647.6
690.456	665
690.88	660
691.284	640.8
691.687	664.2
692.112	641.8
692.515	642.8
692.919	651.8
693.344	658.4
693.747	648.6
694.173	645.6
694.577	669
694.98	652
695.406	655.2
695.81	658.4
696.214	660.4
696.64	665.8
697.044	654.4
697.448	671.4
697.874	658
698.279	652.8
698.684	648.4
699.11	646.6
699.514	650.6
699.919	652.6
700.324	644.2
700.75	653
701.156	652
701.561	668.2
701.987	664.2
702.393	669.4
702.798	669.2
703.203	651.2
703.63	646.8
704.036	642.2
704.442	664
704.847	641.8
705.274	649.8
705.68	661.6
706.086	669.6
706.492	648
706.92	651.6
707.326	659.8
707.732	658
708.139	650
708.545	654
708.973	652
709.38	645.2
709.786	642.6
710.193	675.8
710.6	657.2
711.028	648.4
711.435	645.4
711.842	651.8
712.249	653.2
712.656	661.8
713.064	664.6
713.492	650.8
713.9	655.8
714.307	666.2
714.715	652.2
715.123	662
715.53	666.4
715.938	665
716.367	657.8
716.775	652
717.184	652.4
717.592	645
718	672
718.408	705
718.816	700.2
719.225	658.4
719.633	657.4
720.042	649
720.472	655.2
720.881	676.2
721.29	669.4
721.699	643.2
722.108	657.6
722.517	656.2
722.926	656.8
723.335	669.2
723.744	653.6
724.154	651.2
724.563	661.2
724.973	652.2
725.382	649.6
725.792	656.8
726.202	648
726.612	685.6
727.022	658
727.432	652
779.813	653.4
780.223	708.6
780.634	644.2
781.044	653.2
781.454	657.8
781.865	677.8
782.276	648.4
782.686	672.2
783.097	656.4
783.508	642.2
783.919	660.8
784.33	674.6
784.741	669.4
785.152	655.4
785.563	644
785.974	646.8
786.386	665.8
786.776	655.6
787.188	647.2
787.599	638.8
788.011	656
788.423	660.8
788.835	647.6
789.247	641.6
789.659	646.2
790.071	657.8
790.483	706.2
790.874	648.4
791.286	659
791.699	650.2
792.111	650.8
792.524	664.4
792.937	667
793.349	646.6
793.741	635.2
794.154	646.8
794.567	671.4
794.98	656.8
795.393	644.8
795.785	665
796.198	650.8
796.612	657.8
797.026	652.8
797.439	639.4
797.831	646.6
798.245	645.8
798.659	652.6
799.073	650.6
799.487	642.8
799.88	646
800.294	648
800.708	655.6
801.123	645.8
801.516	666.2
801.93	636.2
802.345	633
802.76	654.8
803.153	661.2
803.568	660.4
803.983	664.6
804.377	650
804.792	634.4
805.207	631
805.601	655.2
806.016	686.2
806.432	645
806.826	691.8
807.242	670.2
807.658	660.4
808.052	646.4
808.468	648
808.884	646.2
809.279	654
809.695	675.4
810.111	673.4
810.506	663.2
810.922	682.8
811.339	646
811.734	664.8
812.151	651
812.546	650
812.963	652.8
813.38	657
813.776	657
814.193	677
814.589	642.2
815.006	645.4
815.402	647.2
815.82	653.4
816.237	653.2
816.633	647
817.051	638.4
817.448	664.4
817.866	635.4
818.262	677.4
818.68	653.6
819.077	648.8
819.495	654.6
819.892	695.6
820.311	646.2
820.708	645.6
821.127	646.6
821.524	662.6
821.943	657
822.34	667.4
822.759	657.4
823.157	661
823.576	672.2
823.974	662.6
824.393	783.6
824.791	650.2
825.189	646.2
825.609	652.2
826.007	651.6
826.427	640
826.826	652.6
827.246	665.8
827.644	635.6
828.043	663.6
828.463	652.4
828.862	658.6
829.261	667
829.682	636.6
830.081	654.6
830.502	639.4
830.901	642.4
831.301	650.6
831.722	643.6
832.121	658.8
832.521	648.4
832.943	651.4
833.342	650.4
833.742	643.8
834.164	649.6
834.564	640.8
834.965	659.8
835.386	650.2
835.787	647.6
836.188	655.4
836.588	656.8
837.01	651.2
837.411	648.4
837.812	659
838.213	659
838.636	637.8
839.037	723.8
839.438	653.6
839.84	650.6
840.263	649
840.664	649.8
841.066	633.4
841.468	646.8
841.891	637.6
842.293	653.6
842.695	650.2
843.098	657.6
843.5	645.4
843.902	656.4
844.326	646.8
844.729	653.2
845.131	660
845.534	644.4
845.937	654.4
846.34	676.2
846.764	643.4
847.167	655.2
847.571	645.4
847.974	651.8
848.377	654.2
848.781	714.6
849.184	654.6
849.588	639.6
849.992	648.4
850.396	659.2
850.821	672.4
851.225	651.8
851.63	657.4
852.034	668.2
852.438	659.2
852.843	694.2
853.247	643.4
853.652	641
854.057	662.2
854.462	650.4
854.867	656.4
855.272	688.8
855.677	656.8
856.082	636.4
856.487	637
856.893	655.8
857.298	641
857.704	645.2
858.11	660.2
858.516	659.8
