#lambda/nm	C1
208.295	540.6
208.67	490.6
209.045	446.6
209.419	451.4
209.794	682.6
210.169	658.2
210.544	802.6
210.919	688.8
211.295	676.6
211.67	684.8
212.045	676
212.421	675.6
212.796	720
213.172	686
213.547	670.4
213.923	677
214.299	682.4
214.675	686.6
215.051	682.4
215.427	693.2
215.803	705.4
216.179	685.6
216.555	675.8
216.932	689.4
217.308	683.8
217.684	680.6
218.061	687.8
218.438	676
218.814	674.4
219.191	689
219.568	674.6
219.945	679.2
220.322	693.2
220.699	693.4
221.076	684.6
221.453	691
221.83	679.8
222.208	673.6
222.585	680
222.962	688.8
223.34	686.2
223.717	686
224.095	680.6
224.473	684
224.851	675.6
225.229	665.6
225.607	703.6
225.985	671.6
226.363	689.6
226.741	683.2
227.119	687.6
227.497	692.4
227.876	670
228.254	692
228.633	683.8
229.011	687.6
229.39	680.8
229.769	680
230.148	682.2
230.527	710.2
230.905	678.4
231.284	688.2
231.664	672.8
232.043	695.6
232.422	691.8
232.801	676.4
233.181	688.8
233.56	680.6
233.94	683
234.319	680
234.699	676.4
235.079	729.8
235.458	726.8
235.838	713.6
236.218	679.8
236.598	673
236.978	677.2
237.358	672.8
237.738	675.8
238.119	690.8
238.499	673.6
238.88	683.8
239.26	702
239.641	674.2
240.021	685.2
240.402	685.2
240.783	678.2
241.163	681.4
241.544	687.2
241.925	681.8
242.306	695.8
242.687	680.2
243.069	686.4
243.45	690.2
243.831	671.6
244.212	687
244.594	722.8
244.975	686.2
245.357	675.6
245.739	670.6
246.12	679.8
246.502	701.2
246.884	683.8
247.266	689.4
247.648	672.2
248.03	711.8
248.412	689.8
248.794	686
249.176	675
249.559	690.8
249.941	676.2
250.323	667.2
250.706	668.4
251.089	679
251.471	687
251.854	681.4
252.237	683
252.62	684.4
253.002	679.8
253.385	679.4
253.769	697.6
254.152	683.8
254.535	687.2
254.918	669.2
255.301	676.6
255.685	682.4
256.068	675.6
256.452	710.4
256.835	693.2
257.219	685.8
257.603	703.2
257.986	677.2
258.37	692.2
258.754	673.4
259.138	696
259.522	699.4
259.906	684
260.29	688.2
260.675	676.6
261.059	689.4
261.443	676
261.828	700.2
262.212	696.2
262.597	672.4
262.981	691.4
263.366	687.4
263.751	690.6
264.136	675
264.521	678.6
264.906	674.2
265.291	692.4
265.676	682.4
266.061	685.2
266.446	709.4
266.831	676
267.217	709
267.602	684.6
267.987	690.4
268.373	681.6
268.759	705
269.144	688
269.53	682.8
269.916	677.2
270.302	682.4
270.688	686.8
271.074	681.6
271.46	705.4
271.846	715.6
272.232	682
272.618	672.4
273.004	683
273.391	698.6
273.777	708.8
274.164	691.8
274.55	702
274.937	690.6
275.324	679.2
275.71	683.8
276.097	686.4
276.484	672
276.871	690.6
277.258	689
277.645	663.8
278.032	680
278.419	681.6
278.807	692.2
279.194	673.4
279.581	670.6
279.969	697.6
280.356	686.8
280.744	681
281.131	708.8
281.519	694.2
281.907	678.2
282.295	682
282.682	699.2
283.07	689.2
283.458	698.2
283.846	694.4
284.235	695.8
284.623	700.4
285.011	679.8
285.399	683.6
285.788	687.4
286.176	670.8
286.565	704.2
286.953	683
287.342	681.2
287.731	673.4
288.119	675.6
288.508	684
288.897	687.4
289.286	671.4
289.675	684.8
290.064	698.4
290.453	679.2
290.821	690
291.21	701.4
291.599	686.2
291.989	687.4
292.378	700.4
292.768	705.2
293.157	695
293.547	692.2
293.936	687.2
294.326	678.8
294.716	689.4
295.106	685
295.496	696.8
295.886	693.8
296.276	685.4
296.666	681
297.056	688
297.446	678
297.836	710
298.227	680
298.617	694.8
299.008	698
299.398	686.6
299.789	683.8
300.179	682
300.57	701.2
300.961	689.2
301.352	685
301.742	696.4
302.133	693.8
302.524	687.6
302.915	685.4
303.307	672.2
303.698	704.2
304.089	695.8
304.48	687.8
304.872	691.4
305.263	686.6
305.655	677
306.046	683
306.438	694
306.829	679.6
307.221	700.6
307.613	687
308.005	703
308.397	701.8
308.789	720
309.181	715
309.573	704.6
309.965	695.6
310.357	676
310.749	705.2
311.142	679.2
311.534	685.8
311.926	690.4
312.319	689.8
312.711	682.2
313.104	704.6
313.497	681.6
313.889	738.2
314.282	715
314.675	708.8
315.068	685
315.461	689
315.854	725
316.247	697.8
316.64	687.4
317.033	693.2
317.405	698.2
317.798	697.4
318.192	697.4
318.585	681.8
318.979	694.4
319.372	680.4
319.766	687.2
320.16	697.6
320.553	704.6
320.947	709
321.341	684.2
321.735	692
322.129	673.4
322.523	712.6
322.917	677.8
323.311	707.6
323.705	697.2
324.099	689.2
324.494	708.6
324.888	703
325.282	675.6
325.677	706.2
326.071	694.2
326.466	700.8
326.861	698
327.255	703.4
327.65	710.8
328.045	716.4
328.44	696.6
328.835	689.6
329.23	683.4
329.625	717
330.02	685
330.415	722.8
330.81	690.4
331.206	683.2
331.601	683.6
331.996	700.4
332.37	719.2
332.766	677.4
333.161	721
333.557	685.6
333.953	675.8
334.348	1060.6
334.744	684.8
335.14	681
335.536	676.6
335.932	690.2
336.328	689.8
336.724	700.4
337.12	675.6
337.516	691.4
337.913	682.8
338.309	691.8
338.705	681.4
339.102	684.6
339.498	680.2
339.895	709
340.291	683.2
340.688	696.2
341.085	680.6
341.481	678.4
341.878	691.6
342.275	713.4
342.672	672.8
343.069	686
343.466	673
343.842	696.8
344.239	681.6
344.636	687.6
345.033	680.6
345.431	682.2
345.828	687
346.225	675.4
346.623	735.6
347.02	685.8
347.418	697
347.816	706.8
348.213	675.2
348.611	697.2
349.009	682.8
349.407	697.2
349.805	674.4
350.203	669.2
350.601	690
350.999	674.2
351.397	724.6
351.795	685.4
352.193	692.4
352.57	692.4
352.969	699.2
353.367	672.4
353.766	667
354.164	680.4
354.563	696.2
354.961	683
355.36	674.6
355.759	673.4
356.158	667.8
356.557	676.2
356.956	674.2
357.355	668.4
357.754	683.4
358.153	683.8
358.552	705
358.951	683.8
359.35	686.4
359.75	671.4
360.149	675.2
360.527	660.6
360.926	675
361.326	690.2
361.726	687
362.125	679.6
362.525	686
362.925	676
363.325	682.2
363.724	680.2
364.124	672
364.524	666.8
364.924	681
365.324	694.2
365.725	662.2
366.125	689.2
366.525	678.2
366.904	668.8
367.304	663.6
367.705	699.8
368.105	694.4
368.506	681.6
368.906	681.8
369.307	683.6
369.708	683.4
370.108	663.8
370.509	691
370.91	672.6
371.311	685.2
371.712	677.6
372.113	679.4
372.514	668.6
372.894	677.6
373.295	670
373.696	689.4
374.097	687.8
374.499	706.4
374.9	674.6
375.301	679.2
375.703	677
376.105	680.6
376.506	689
376.908	680
377.309	686.2
377.711	693.2
378.113	674.6
378.493	680
378.895	676
379.297	687
379.699	668.2
380.102	683.2
380.504	681.2
380.906	676
381.308	703.6
381.71	679.4
382.113	686.6
382.515	680.6
382.918	683.6
383.299	689.6
383.701	681.4
384.104	680.6
384.507	661.8
384.909	688.6
385.312	659.4
385.715	664.8
386.118	675.6
386.521	668.4
386.924	691.8
387.327	677.2
387.709	661
388.112	657
388.515	678.4
388.918	685
389.322	685.6
389.725	670
390.129	704.8
390.532	681.8
390.936	680.4
391.339	666.2
391.743	678.2
392.125	669.4
392.529	690
392.933	693.2
393.337	671.6
393.74	672.2
394.144	675.6
394.548	677.6
394.953	667.4
395.357	683.4
395.761	675.6
396.144	678
396.548	674.8
396.952	666.4
397.357	678.4
397.761	673.8
398.166	676.4
398.57	678.8
398.975	665.4
399.379	689.8
399.763	735.2
400.168	679
400.572	672
400.977	678.6
401.382	709.8
401.787	688.2
402.192	695.6
402.597	689.4
403.002	667.8
403.386	691.2
403.791	691.4
404.197	664.4
404.602	681.8
405.007	677.8
405.413	675.2
405.818	672.2
406.224	665.2
406.608	673.6
407.014	668.6
407.42	704.2
407.825	675.2
408.231	688.4
408.637	676.8
409.043	693.2
409.449	676.8
409.834	676.4
410.24	681.2
410.646	697.2
411.052	693.8
411.458	685.6
411.865	681.8
412.271	694.2
412.677	679.8
413.062	692.8
413.469	668.4
413.875	710.8
414.282	687.4
414.689	683.4
415.095	685.4
415.502	673.4
415.888	678
416.294	665.6
416.701	726.6
417.108	676.4
417.515	685.8
417.923	680
418.33	697.6
418.715	700.8
419.123	677.2
419.53	679
419.937	695.8
420.345	697.8
420.752	681
421.16	704.6
421.546	683.6
421.953	692.6
422.361	673.8
422.769	680
423.177	671.4
423.585	711
423.992	704.8
424.379	691
424.787	690.6
425.195	712
425.603	683
426.011	695.4
426.419	701
426.806	684.8
427.214	697
427.623	695.6
428.031	703.6
428.44	679.8
428.848	701.6
429.235	706.4
429.644	676.6
430.053	681.8
430.461	701
430.87	713.4
431.279	698.2
431.666	680.4
432.075	676.6
432.484	694.6
432.893	691.2
433.302	706
433.711	746.4
434.099	692.8
434.508	682.8
434.918	681.2
435.327	702.6
435.737	702.4
436.125	707.4
436.534	699.4
436.944	702.2
437.353	697.6
437.763	726.2
438.173	694.2
438.561	702.8
438.971	685.4
439.381	694.2
439.791	704
440.201	678
440.589	705.6
440.999	722.2
441.409	711.6
441.819	700.2
442.23	717.2
442.619	718.8
443.029	705.4
443.439	710.2
443.85	734.4
444.26	735.4
444.649	719.6
445.06	717.8
445.471	721
445.881	721
446.292	748.6
446.682	747.6
447.092	706.4
447.503	789
447.914	728.8
448.325	733.2
448.715	731
449.126	726.2
449.537	728.6
449.948	738.8
450.338	732
450.75	741.4
451.161	732.6
451.572	736
451.984	724.2
452.374	713.8
452.786	729.8
453.197	738.4
453.609	739.4
453.999	712
454.411	720.8
454.823	745.2
455.235	742.4
455.647	725.6
456.037	740.6
456.449	715.4
456.862	723.8
457.274	736.2
457.665	727.4
458.077	741
458.489	775.6
458.902	728.4
459.293	741.6
459.705	740
460.118	725
460.53	737.4
460.921	733.6
461.334	743.2
461.747	739.2
462.16	763.8
462.551	755.2
462.964	753.6
463.377	724.8
463.79	738.4
464.182	747.6
464.595	733.6
465.008	739.6
465.421	739
465.813	736.8
466.226	747
466.64	734
467.053	791.8
467.445	762.2
467.859	768.2
468.272	746.8
468.686	756.8
469.078	740.8
469.492	732.2
469.906	751.4
470.298	748
470.712	742.8
471.126	807.8
471.54	729.2
471.933	729
472.347	742
472.761	740
473.175	731.6
473.568	735.2
473.982	734
474.397	743
474.79	732.8
475.204	741.8
475.619	736.4
476.033	744.8
476.426	745.6
476.841	727.2
477.256	757.2
477.649	718.2
478.064	733.2
478.479	733.2
478.872	735.4
479.287	719.2
479.702	722.2
480.118	737.6
480.511	734
480.927	738.2
481.342	739.6
481.736	744.6
482.151	737.4
482.566	751
482.96	730.8
483.376	754.2
483.792	734
484.186	741.8
484.602	736.2
485.017	736.8
485.412	739.8
485.827	748.6
486.243	738.4
486.638	757.2
487.054	744.6
487.47	755.6
487.865	721.6
488.281	730.8
488.697	734.2
489.092	729.4
489.508	720
489.925	737.8
490.32	725.2
490.736	738.4
491.153	726
491.548	729.8
491.964	751.2
492.381	710.8
492.776	741.6
493.193	721.4
493.61	730.8
494.006	729.2
494.422	735.8
494.84	722.4
495.235	736.8
495.652	724.6
496.069	730
496.465	719.2
496.883	733.2
497.3	758.8
497.696	715.2
498.113	733
498.509	710.8
498.927	713.4
499.344	710.8
499.741	714.4
500.158	726.6
500.576	737.8
500.973	722.2
501.39	718.2
501.787	708.6
502.205	714
502.623	708.6
503.02	702.8
503.438	716.2
503.856	726.4
504.253	724.4
504.671	709.4
505.068	711.8
505.486	715.6
505.905	736.4
506.302	717.8
506.72	728.2
507.118	702.8
507.536	714.6
507.955	719.2
508.352	714.8
508.771	720.4
509.169	722.6
509.587	699.2
510.006	714.6
510.404	703.8
510.823	704.8
511.221	711.6
511.64	710.8
512.038	730.2
512.457	710.8
512.877	697.4
513.275	698
513.694	699.8
514.092	697.6
514.512	713
514.91	709.2
515.33	702.8
515.749	706
516.148	700.6
516.568	708.4
516.966	701.2
517.386	694.4
517.785	707.2
518.205	698.2
518.603	697
519.024	685.6
519.444	697.8
519.843	707.8
520.263	709.4
520.662	699.6
521.082	706
521.481	712
521.902	702.8
522.301	706.4
522.722	703
523.121	698.6
523.542	703.8
523.963	693.6
524.362	701.8
524.783	698.6
525.183	695.4
525.604	703.4
526.003	686.6
526.425	693.2
526.824	705.6
527.246	701
527.646	706.6
528.067	698.6
528.467	696
528.888	702
529.289	690.2
529.71	689.6
530.11	681.4
530.532	691.4
530.932	693.4
531.354	680.2
531.755	723.6
532.176	707.4
532.577	685.6
532.999	687.2
533.4	685.6
533.822	696.8
534.223	687.4
534.645	688.8
535.046	691.4
535.468	688.4
535.869	705.4
536.292	682.2
536.693	726.8
537.115	690.6
537.516	691
537.939	681.4
538.34	698.2
538.742	699.4
539.165	687
539.566	682.2
539.989	682.2
540.391	690.4
540.814	689.4
541.216	688.4
541.639	679.8
542.041	702
542.464	677.6
542.866	674.8
543.268	675.8
543.691	684.6
544.093	690.2
544.517	698.4
544.919	663.2
545.343	706.6
545.745	665.2
546.147	684
546.571	674.8
546.974	668.4
547.398	685.8
547.8	695
548.224	665
548.627	665.8
549.03	690.2
549.454	673.4
549.857	676.6
550.281	671.2
550.684	676.8
551.087	685.4
551.512	677.8
551.915	689
552.34	683
552.743	679.2
553.146	680.6
553.571	678.2
553.975	712.6
554.399	672.4
554.803	734
555.207	669.6
555.632	671.2
556.036	679.4
556.461	670.6
556.865	680.8
557.268	666.4
557.694	665
558.098	676.2
558.502	682.8
558.927	670.4
559.332	672.4
559.736	666.6
560.162	680.2
560.566	672.2
560.992	683.8
561.396	680.4
561.801	661.6
562.227	669.8
562.631	663.8
563.036	666
563.462	694
563.867	673.8
564.272	659.8
564.698	677.8
565.103	658.6
565.508	684.2
565.935	660.8
566.34	662.4
566.745	689.6
567.172	662.8
567.577	701.6
567.982	684
568.409	682
568.815	668
569.22	673.8
569.626	681
570.053	665
570.459	683.4
570.865	678.4
571.292	688.6
571.698	685.6
572.104	664.6
572.531	667.6
572.937	677.4
573.343	677.6
573.75	674.4
574.177	671.2
574.583	687.6
574.99	666.6
575.396	679.4
575.824	668
576.231	676
576.637	668.6
577.065	700
577.472	656.6
577.879	666.2
578.286	688.4
578.714	656.8
579.121	666
579.528	672.2
579.935	677.4
580.364	673.2
580.771	650.8
581.178	652
581.585	670.8
582.014	675.8
582.421	664.4
582.829	663.4
583.236	681.2
583.644	664.6
584.073	665
584.481	666.6
584.889	666.2
585.296	671.8
585.726	675.2
586.134	663.4
586.542	665.4
586.95	686.6
587.358	653.6
587.787	672.8
588.196	655
588.604	661.6
589.012	669.6
589.421	654.2
589.851	660.4
590.259	667.4
590.668	662.6
591.076	709.4
591.485	663.2
591.894	666
592.324	681.8
592.733	673.2
593.142	657
593.551	669
593.96	711
594.369	645.2
594.8	652.8
595.209	666
595.618	653.4
596.028	659.4
596.437	659.8
596.847	658
597.256	663.2
597.687	674
598.097	659
598.507	656
598.917	664
599.327	672
599.736	672.2
600.146	673.8
600.556	661.8
600.988	684.4
601.398	661
601.808	678.8
602.219	656.8
602.629	666.4
603.039	663.4
603.45	695.4
603.86	673.2
604.271	688.8
604.703	665.6
605.114	662
605.525	665.6
605.935	674
606.346	698.4
606.757	674.6
607.168	656.4
607.579	663.6
607.99	678.8
608.402	660.8
608.813	675.2
609.224	658.4
609.636	653.2
610.047	659
610.48	664.4
610.892	664.6
611.303	676.6
611.715	664.2
612.127	660.2
612.539	662.4
612.95	666.2
613.362	647.4
613.774	644.4
614.186	657
614.599	655.8
615.011	670.4
615.423	665.8
615.835	657.8
616.248	655.8
616.66	657.4
617.073	649.2
617.485	662.4
617.898	672
618.311	661.8
618.723	665.4
619.136	705.2
619.549	674.6
619.962	689.2
620.375	658.2
620.788	670
621.201	660
621.614	681.4
622.028	651.8
622.441	663.2
622.854	678.4
623.268	654.4
623.681	675
624.095	664.4
624.509	664
624.922	670.6
625.336	652.6
625.728	661.6
626.142	671.4
626.556	688.6
626.97	666.6
627.384	655.6
627.799	664.6
628.213	674.8
628.627	667.8
629.041	661.6
629.456	662.6
629.87	664.6
630.285	665.8
630.699	671
631.093	665.4
631.507	673.2
631.922	670.4
632.337	679.6
632.752	648.6
633.167	661
633.582	666.6
633.997	654
634.412	657.2
634.806	655
635.221	657.8
635.637	669
636.052	647.4
636.468	661.2
636.883	684.6
637.299	662.8
637.715	640.8
638.109	662.8
638.525	641.4
638.941	672.6
639.357	666
639.773	675.8
640.189	652.4
640.584	658
641	659.6
641.416	654.4
641.832	665.2
642.249	666.6
642.665	664.8
643.06	665.6
643.477	672.2
643.894	641.6
644.31	651.4
644.727	659.2
645.123	658.4
645.54	648.6
645.957	662.6
646.374	680
646.77	664
647.187	692.6
647.604	652
648.021	639.4
648.439	644.8
648.835	655.6
649.252	653.2
649.67	653.8
650.088	666
650.484	663.2
650.902	671.6
651.32	661.6
651.738	650.6
652.134	662.8
652.552	679.2
652.971	663
653.389	659
653.786	669.6
654.204	677
654.622	653
655.019	665.2
655.438	665.6
655.857	663.8
656.275	664
656.673	651.4
657.091	746.4
657.51	652.2
657.908	669.2
658.327	679.8
658.746	649
659.144	658.2
659.563	678.6
659.982	658.6
660.38	659.8
660.8	655.8
661.219	660.2
661.617	660.4
662.037	649.8
662.457	668.4
662.855	643
663.275	689.4
663.695	653.2
664.094	658.4
664.514	651.2
664.934	641
665.333	666.8
665.753	642.4
666.152	647
666.572	643.4
666.993	673.4
667.392	651
667.812	657.2
668.212	657
668.632	671.6
669.053	649.6
669.453	661.8
669.874	662.4
670.273	662.2
670.694	653.6
671.116	667.4
671.515	669
671.937	663.6
672.337	662.8
672.758	647
673.158	668.4
673.58	648.8
673.98	662.2
674.402	678.6
674.824	657.2
675.224	647.2
675.646	647.6
676.047	655.6
676.469	664.8
676.869	663.6
677.292	659.4
677.693	661
678.115	651.2
678.516	659
678.939	655.2
679.34	659.4
679.762	673.6
680.164	672.6
680.586	645.8
680.988	659.4
681.411	679.6
681.812	656
682.236	646.4
682.637	650.6
683.061	646.2
683.462	652
683.864	653.2
684.288	669.2
684.69	648.2
685.114	672.6
685.516	658.8
685.94	639.4
686.342	666
686.766	647.8
687.168	658.4
687.571	682.8
687.995	665.2
688.398	644.8
688.822	653.8
689.225	672.6
689.628	676.2
690.052	662.8
690.456	671.8
690.88	658.4
691.284	646.2
691.687	663.4
692.112	647
692.515	644.2
692.919	654
693.344	660
693.747	657.4
694.173	648.4
694.577	669.8
694.98	656.6
695.406	654.6
695.81	660.2
696.214	667.4
696.64	662.6
697.044	669.8
697.448	669.8
697.874	659.6
698.279	656.6
698.684	636.8
699.11	664.2
699.514	651.6
699.919	652.2
700.324	652.6
700.75	655.4
701.156	653
701.561	675.6
701.987	663.6
702.393	668.4
702.798	669.8
703.203	669.4
703.63	650.6
704.036	659.2
704.442	656.2
704.847	659
705.274	651.6
705.68	664.8
706.086	665.6
706.492	645.6
706.92	651.6
707.326	663.8
707.732	653.8
708.139	652.8
708.545	651.8
708.973	653.4
709.38	655.8
709.786	650.4
710.193	678
710.6	663
711.028	647.2
711.435	657.4
711.842	657.6
712.249	652.8
712.656	660.2
713.064	678
713.492	651.4
713.9	655
714.307	649.4
714.715	658.8
715.123	667.6
715.53	668
715.938	662.4
716.367	659
716.775	655.8
717.184	651.6
717.592	656.2
718	678
718.408	696.2
718.816	712.8
719.225	654.4
719.633	658.6
720.042	645.2
720.472	650.6
720.881	684.4
721.29	657
721.699	641.8
722.108	656.4
722.517	662.4
722.926	651.2
723.335	667.4
723.744	658.6
724.154	663.6
724.563	664.8
724.973	655.8
725.382	662
725.792	645.2
726.202	647.2
726.612	685.2
727.022	659.2
727.432	651.6
779.813	651.2
780.223	715.6
780.634	658.8
781.044	651.2
781.454	653
781.865	671.4
782.276	650.6
782.686	666.8
783.097	654.4
783.508	655
783.919	658.8
784.33	664.6
784.741	669.6
785.152	644
785.563	641.8
785.974	651.6
786.386	668.8
786.776	654.8
787.188	656
787.599	650.8
788.011	671.4
788.423	655.4
788.835	652
789.247	647.6
789.659	656.4
790.071	648.6
790.483	706.6
790.874	659.4
791.286	676.8
791.699	650.8
792.111	653.8
792.524	652.4
792.937	649
793.349	643.8
793.741	646.2
794.154	654.4
794.567	678.2
794.98	658.4
795.393	644
795.785	675.4
796.198	645
796.612	653.2
797.026	655
797.439	644.2
797.831	654
798.245	645.6
798.659	646.8
799.073	647
799.487	645.2
799.88	653.6
800.294	651.8
800.708	656.6
801.123	646.2
801.516	668.2
801.93	639.8
802.345	638
802.76	650.6
803.153	668
803.568	661.8
803.983	663.2
804.377	644.2
804.792	647.8
805.207	642
805.601	649.4
806.016	687.8
806.432	650
806.826	690.4
807.242	665.2
807.658	663.4
808.052	646.4
808.468	655.8
808.884	648.8
809.279	659.4
809.695	672.8
810.111	681.6
810.506	655
810.922	664.6
811.339	648.4
811.734	657
812.151	654.6
812.546	652.2
812.963	658
813.38	667
813.776	657.6
814.193	678.6
814.589	639.2
815.006	653.8
815.402	650.2
815.82	648.2
816.237	641.8
816.633	650.6
817.051	639
817.448	653.2
817.866	631.6
818.262	669
818.68	648.4
819.077	642
819.495	652.6
819.892	682.8
820.311	643.4
820.708	647.2
821.127	645.2
821.524	660
821.943	648.6
822.34	663
822.759	655.8
823.157	649.6
823.576	667
823.974	659.2
824.393	739.6
824.791	651.4
825.189	638.2
825.609	647.4
826.007	656.4
826.427	639.8
826.826	650.4
827.246	662
827.644	636.8
828.043	658.4
828.463	658.2
828.862	660.6
829.261	663
829.682	635.6
830.081	656.6
830.502	649.8
830.901	657
831.301	643.6
831.722	642.8
832.121	654.8
832.521	654.2
832.943	651.8
833.342	659.2
833.742	645.6
834.164	650.4
834.564	649
834.965	658.2
835.386	646.8
835.787	649.8
836.188	653
836.588	650.6
837.01	642.6
837.411	642.4
837.812	654
838.213	651.6
838.636	649.2
839.037	723.4
839.438	658.4
839.84	652
840.263	657.2
840.664	660.6
841.066	654.6
841.468	655.4
841.891	660
842.293	659.6
842.695	658.4
843.098	662.8
843.5	641.8
843.902	652.6
844.326	652.8
844.729	650
845.131	663.8
845.534	650
845.937	656.6
846.34	676.8
846.764	646
847.167	655.6
847.571	643.8
847.974	651.6
848.377	645.8
848.781	704.4
849.184	658.2
849.588	652.8
849.992	647.6
850.396	656.8
850.821	670.6
851.225	653.6
851.63	654
852.034	671
852.438	663.6
852.843	793.4
853.247	646.4
853.652	655.8
854.057	675.8
854.462	659
854.867	658
855.272	679.2
855.677	655.6
856.082	652.2
