#lambda/nm	C1
208.295	530.6
208.67	486.2
209.045	447.6
209.419	448.4
209.794	675.6
210.169	659.4
210.544	800.6
210.919	694.2
211.295	673.6
211.67	683.4
212.045	682.4
212.421	671.6
212.796	720.2
213.172	664.4
213.547	668.4
213.923	663.2
214.299	665.2
214.675	683.6
215.051	682.6
215.427	692.6
215.803	700.6
216.179	680.8
216.555	675.8
216.932	690.2
217.308	677.6
217.684	676.2
218.061	684.6
218.438	683.6
218.814	674.8
219.191	689.6
219.568	676.2
219.945	673.6
220.322	689.8
220.699	678.6
221.076	692.4
221.453	680.2
221.83	668.8
222.208	673
222.585	678.4
222.962	676.6
223.34	685.4
223.717	681.6
224.095	677.2
224.473	689
224.851	673.6
225.229	666.4
225.607	699.8
225.985	673.4
226.363	689.6
226.741	684
227.119	686.2
227.497	694.2
227.876	666
228.254	692.4
228.633	687.6
229.011	689
229.39	678.8
229.769	687
230.148	697.8
230.527	703.4
230.905	684
231.284	692.2
231.664	670.2
232.043	699.6
232.422	695.6
232.801	677.2
233.181	692.8
233.56	682.2
233.94	686.6
234.319	672.8
234.699	680.6
235.079	733.6
235.458	727
235.838	700.8
236.218	673
236.598	677
236.978	682
237.358	675.2
237.738	673.2
238.119	682.6
238.499	669.6
238.88	684
239.26	692.4
239.641	667.4
240.021	675.8
240.402	683.4
240.783	680.6
241.163	685.4
241.544	688.6
241.925	680.2
242.306	699.4
242.687	675.8
243.069	688.6
243.45	682.8
243.831	678.2
244.212	686
244.594	725
244.975	697.4
245.357	690.4
245.739	669.8
246.12	674.2
246.502	703.8
246.884	679
247.266	680.8
247.648	684.2
248.03	709
248.412	685.8
248.794	693.2
249.176	685.4
249.559	697.2
249.941	679.8
250.323	671.8
250.706	672.4
251.089	685.8
251.471	684.8
251.854	675.6
252.237	681.8
252.62	694.6
253.002	684
253.385	682
253.769	697.6
254.152	683.6
254.535	685.6
254.918	684.6
255.301	675.6
255.685	675.6
256.068	669
256.452	706
256.835	695.8
257.219	682
257.603	702.2
257.986	675.6
258.37	685.8
258.754	670.4
259.138	691
259.522	700.2
259.906	682.8
260.29	688.6
260.675	685.2
261.059	691
261.443	674
261.828	692.2
262.212	685.4
262.597	668.2
262.981	679.2
263.366	690.2
263.751	687.6
264.136	683.4
264.521	685.2
264.906	678.4
265.291	692.2
265.676	680.8
266.061	687.2
266.446	701.6
266.831	684
267.217	701.6
267.602	685.8
267.987	686.2
268.373	678.2
268.759	689.4
269.144	685.8
269.53	674
269.916	676
270.302	672.2
270.688	684.4
271.074	696
271.46	701.2
271.846	719.8
272.232	683
272.618	679.8
273.004	677.2
273.391	696.8
273.777	694.8
274.164	690.6
274.55	694.6
274.937	683.8
275.324	676.2
275.71	692.2
276.097	684
276.484	669.8
276.871	680.4
277.258	694.8
277.645	670.6
278.032	683.8
278.419	670.4
278.807	688.6
279.194	674.8
279.581	681.4
279.969	684
280.356	692.8
280.744	687
281.131	707.6
281.519	691
281.907	687.8
282.295	678.4
282.682	699.4
283.07	679.6
283.458	697.4
283.846	702
284.235	691.4
284.623	698.2
285.011	673.4
285.399	684.6
285.788	684
286.176	670.2
286.565	706.2
286.953	682.2
287.342	682.6
287.731	675
288.119	674.8
288.508	676.8
288.897	687.8
289.286	678.2
289.675	681.2
290.064	702.2
290.453	677.8
290.821	684.4
291.21	697
291.599	681
291.989	688.6
292.378	686.2
292.768	702.4
293.157	686.2
293.547	694.4
293.936	686.8
294.326	681
294.716	690.2
295.106	681.8
295.496	685
295.886	697.2
296.276	689.8
296.666	673.2
297.056	679.2
297.446	668
297.836	704.6
298.227	683
298.617	682.2
299.008	694.2
299.398	682.6
299.789	682.4
300.179	689.2
300.57	706.6
300.961	678.2
301.352	683.4
301.742	693.2
302.133	692.4
302.524	686.8
302.915	688.4
303.307	677.6
303.698	689
304.089	701
304.48	675.8
304.872	691.6
305.263	690.6
305.655	680.4
306.046	703.2
306.438	690.2
306.829	681.4
307.221	699
307.613	696.2
308.005	692.2
308.397	698
308.789	714
309.181	719.4
309.573	704.6
309.965	708.6
310.357	681.8
310.749	701.2
311.142	678.2
311.534	684.2
311.926	702.6
312.319	692.6
312.711	679.4
313.104	694.4
313.497	684.2
313.889	730.4
314.282	698.2
314.675	723.4
315.068	692.4
315.461	684.8
315.854	723
316.247	694
316.64	686
317.033	690.4
317.405	700.6
317.798	676
318.192	681.6
318.585	674.8
318.979	694.2
319.372	673.8
319.766	682.4
320.16	691.2
320.553	705.2
320.947	708.4
321.341	680.4
321.735	676
322.129	669.6
322.523	716.8
322.917	672.6
323.311	686.6
323.705	689.8
324.099	686.2
324.494	709
324.888	694.2
325.282	690.8
325.677	707.8
326.071	691.8
326.466	701
326.861	695.6
327.255	704.2
327.65	704.6
328.045	711.4
328.44	688
328.835	681.8
329.23	684.2
329.625	716
330.02	680.2
330.415	701.6
330.81	679.4
331.206	682.4
331.601	677
331.996	696
332.37	712.4
332.766	674.6
333.161	719.6
333.557	672.8
333.953	688.2
334.348	1120
334.744	687.2
335.14	678.2
335.536	687.8
335.932	697
336.328	691.6
336.724	703.4
337.12	683.6
337.516	695.8
337.913	688
338.309	698.8
338.705	685.8
339.102	706.6
339.498	680
339.895	703.6
340.291	681.4
340.688	697.2
341.085	672.4
341.481	680.2
341.878	676.6
342.275	707.2
342.672	678.2
343.069	685.2
343.466	676.2
343.842	692.8
344.239	677.4
344.636	697.2
345.033	675.8
345.431	684
345.828	682
346.225	677.4
346.623	722.6
347.02	686.8
347.418	699.8
347.816	709.4
348.213	671.6
348.611	689.6
349.009	678.6
349.407	692.8
349.805	678.6
350.203	669
350.601	694.8
350.999	682.6
351.397	750.8
351.795	681
352.193	700
352.57	688.8
352.969	700.2
353.367	682.4
353.766	672.8
354.164	675.2
354.563	696.6
354.961	688.4
355.36	682.2
355.759	685.4
356.158	667
356.557	678.4
356.956	677.8
357.355	656.8
357.754	688.2
358.153	689
358.552	709.4
358.951	689.2
359.35	694.4
359.75	682
360.149	675.4
360.527	663.6
360.926	661.2
361.326	686.6
361.726	676.6
362.125	674.4
362.525	697.8
362.925	679.2
363.325	678.8
363.724	686
364.124	672.2
364.524	672.4
364.924	680.2
365.324	694
365.725	664.8
366.125	690.4
366.525	678.2
366.904	666.6
367.304	661
367.705	698.4
368.105	697.8
368.506	682.4
368.906	675.2
369.307	686.8
369.708	686.4
370.108	664.2
370.509	687
370.91	672.2
371.311	677.8
371.712	683.8
372.113	683.8
372.514	667.6
372.894	675
373.295	664.4
373.696	687
374.097	681.4
374.499	711.8
374.9	679
375.301	663
375.703	678.6
376.105	671
376.506	680.8
376.908	675
377.309	678.8
377.711	678
378.113	673.2
378.493	685.6
378.895	673.6
379.297	684
379.699	664.8
380.102	679.8
380.504	677.8
380.906	671.8
381.308	715.2
381.71	671.4
382.113	678.4
382.515	675.4
382.918	681.4
383.299	676.8
383.701	689.8
384.104	678.2
384.507	649
384.909	685.4
385.312	662
385.715	668.2
386.118	684.4
386.521	659.6
386.924	685
387.327	670.2
387.709	663
388.112	660.6
388.515	665
388.918	671.2
389.322	681.4
389.725	666.8
390.129	703.6
390.532	681
390.936	676.4
391.339	672.2
391.743	682.2
392.125	672
392.529	691.8
392.933	693.6
393.337	678.6
393.74	679.2
394.144	679.6
394.548	672.8
394.953	679.2
395.357	682.8
395.761	675
396.144	671.8
396.548	679.4
396.952	677.8
397.357	679
397.761	675.6
398.166	677.2
398.57	671.6
398.975	676.4
399.379	685.4
399.763	731.2
400.168	680.6
400.572	678.8
400.977	679.2
401.382	699.2
401.787	686.2
402.192	692
402.597	695.6
403.002	665.8
403.386	699
403.791	699.8
404.197	663.8
404.602	674.4
405.007	674.4
405.413	678.4
405.818	678
406.224	674.8
406.608	672.4
407.014	665.4
407.42	690.8
407.825	670.2
408.231	686
408.637	685.8
409.043	690.4
409.449	669.8
409.834	674
410.24	682.2
410.646	693.4
411.052	691
411.458	682.2
411.865	687.6
412.271	690.4
412.677	674.8
413.062	681.2
413.469	676.6
413.875	711.4
414.282	688.8
414.689	686.6
415.095	685.2
415.502	668.8
415.888	677.2
416.294	664.6
416.701	723.8
417.108	670.4
417.515	683.6
417.923	676.2
418.33	697.2
418.715	687.2
419.123	671
419.53	677.8
419.937	683
420.345	695.8
420.752	674
421.16	699.2
421.546	684.6
421.953	684.6
422.361	676.2
422.769	674.2
423.177	663.6
423.585	705.4
423.992	697
424.379	695.4
424.787	684.8
425.195	693.8
425.603	674.4
426.011	689
426.419	692.6
426.806	687.2
427.214	680.2
427.623	689.6
428.031	690
428.44	680.8
428.848	702.8
429.235	699.8
429.644	691.8
430.053	677.4
430.461	697.6
430.87	725.6
431.279	700.8
431.666	685.2
432.075	698.4
432.484	696.2
432.893	684.4
433.302	718.4
433.711	762.4
434.099	710.4
434.508	703.4
434.918	700.4
435.327	717.8
435.737	728.4
436.125	716.4
436.534	733.8
436.944	729.6
437.353	738.4
437.763	757
438.173	725.6
438.561	760.4
438.971	730.4
439.381	751.8
439.791	753.8
440.201	742.2
440.589	759.4
440.999	779.8
441.409	772.6
441.819	753.6
442.23	787.2
442.619	792.6
443.029	790.6
443.439	787.8
443.85	801.8
444.26	804
444.649	803.2
445.06	801.8
445.471	784.2
445.881	794.8
446.292	820.8
446.682	816.8
447.092	788.6
447.503	859
447.914	797.8
448.325	811
448.715	804.2
449.126	810.6
449.537	810.8
449.948	807.8
450.338	803.8
450.75	821.4
451.161	806.6
451.572	821.6
451.984	811.8
452.374	797.8
452.786	823.2
453.197	817.4
453.609	823
453.999	803.8
454.411	824
454.823	839.2
455.235	822.8
455.647	820.4
456.037	829.8
456.449	809.8
456.862	828.8
457.274	830.4
457.665	816.8
458.077	827
458.489	863.6
458.902	820.6
459.293	826
459.705	833
460.118	826
460.53	831
460.921	828.2
461.334	825.8
461.747	826.6
462.16	841.8
462.551	847
462.964	841
463.377	813.4
463.79	826.2
464.182	839
464.595	814.4
465.008	838.4
465.421	832.8
465.813	825.2
466.226	847
466.64	826
467.053	891.2
467.445	844.8
467.859	848.4
468.272	846.2
468.686	849.6
469.078	833
469.492	814.2
469.906	833.8
470.298	844.6
470.712	827.2
471.126	897.4
471.54	824.6
471.933	824.6
472.347	835.2
472.761	827.2
473.175	815.4
473.568	828.2
473.982	823.4
474.397	824
474.79	817.2
475.204	828.8
475.619	817.2
476.033	828.2
476.426	820.8
476.841	825.4
477.256	859.6
477.649	818
478.064	818
478.479	807.6
478.872	819
479.287	801.8
479.702	816.4
480.118	823.8
480.511	820.8
480.927	821.6
481.342	828.6
481.736	816.4
482.151	814.2
482.566	819
482.96	815.8
483.376	832.4
483.792	813
484.186	813
484.602	812.4
485.017	812
485.412	821
485.827	815.4
486.243	809.2
486.638	826.6
487.054	832.4
487.47	825.2
487.865	801.2
488.281	809.8
488.697	800.8
489.092	806.2
489.508	799.8
489.925	823.8
490.32	800
490.736	810
491.153	807.4
491.548	802.8
491.964	813.2
492.381	782
492.776	804.4
493.193	797.8
493.61	812.6
494.006	785.4
494.422	807
494.84	786.6
495.235	809
495.652	793.6
496.069	793.4
496.465	785.2
496.883	786.2
497.3	813.2
497.696	780.8
498.113	787.2
498.509	773.2
498.927	776
499.344	771.2
499.741	778.8
500.158	790.2
500.576	794.4
500.973	784.8
501.39	772.2
501.787	771.2
502.205	779.8
502.623	772.2
503.02	771
503.438	778.6
503.856	776.4
504.253	773
504.671	772.4
505.068	766.6
505.486	773.8
505.905	798.6
506.302	764
506.72	779
507.118	765
507.536	771.8
507.955	767
508.352	772
508.771	763
509.169	770.6
509.587	748.6
510.006	749.2
510.404	753
510.823	755.8
511.221	765.2
511.64	756.4
512.038	768.4
512.457	751.4
512.877	761.2
513.275	742.2
513.694	750.8
514.092	752
514.512	749.6
514.91	732.4
515.33	756
515.749	751.6
516.148	741.6
516.568	743
516.966	738.6
517.386	746.4
517.785	747.6
518.205	739.6
518.603	727.4
519.024	731.4
519.444	745.2
519.843	747
520.263	751.2
520.662	751
521.082	729.2
521.481	744.6
521.902	741
522.301	743.8
522.722	726.8
523.121	734
523.542	724.8
523.963	726.4
524.362	750.2
524.783	732.8
525.183	737.4
525.604	733.8
526.003	715.6
526.425	717
526.824	733
527.246	736.8
527.646	736.6
528.067	724
528.467	716.2
528.888	716.8
529.289	720
529.71	724.6
530.11	719.6
530.532	710.8
530.932	714.2
531.354	714.8
531.755	754.6
532.176	723.4
532.577	720.8
532.999	721
533.4	708.4
533.822	732.6
534.223	719
534.645	712.8
535.046	717.8
535.468	715
535.869	728.4
536.292	701.6
536.693	745.6
537.115	719.2
537.516	710
537.939	707
538.34	731.4
538.742	721.4
539.165	719.6
539.566	712.8
539.989	704.2
540.391	706.4
540.814	708
541.216	713.4
541.639	698.2
542.041	711.2
542.464	703.8
542.866	707.4
543.268	696.2
543.691	708
544.093	722.2
544.517	728.8
544.919	699.2
545.343	723
545.745	693.6
546.147	713.4
546.571	704.4
546.974	696
547.398	700.8
547.8	715.6
548.224	710
548.627	696.2
549.03	703.8
549.454	699.2
549.857	702
550.281	694
550.684	692
551.087	709.4
551.512	708.2
551.915	699
552.34	694.2
552.743	692
553.146	693.8
553.571	704.2
553.975	711.2
554.399	693.2
554.803	749.4
555.207	693.4
555.632	687.8
556.036	706.4
556.461	677.6
556.865	691.6
557.268	687.6
557.694	700.2
558.098	701.2
558.502	696.6
558.927	688.2
559.332	690.6
559.736	696.2
560.162	699.4
560.566	691
560.992	700.2
561.396	686.8
561.801	684.4
562.227	693.6
562.631	691.2
563.036	687.6
563.462	705.8
563.867	690.6
564.272	672.8
564.698	697.4
565.103	674
565.508	712.4
565.935	685.6
566.34	685.4
566.745	702
567.172	683.6
567.577	709.8
567.982	694.8
568.409	687
568.815	667.4
569.22	690
569.626	700.2
570.053	672.4
570.459	695.2
570.865	686.6
571.292	697
571.698	695.2
572.104	670.6
572.531	682.4
572.937	700.4
573.343	689.6
573.75	674.8
574.177	686.2
574.583	692.4
574.99	671
575.396	681.8
575.824	670.6
576.231	683.8
576.637	679
577.065	714.6
577.472	669.4
577.879	671.2
578.286	685.8
578.714	666.2
579.121	679.8
579.528	683.6
579.935	691.2
580.364	670.6
580.771	658.8
581.178	666.6
581.585	682.4
582.014	681.6
582.421	671
582.829	666.2
583.236	678.4
583.644	659
584.073	670.6
584.481	677
584.889	669.8
585.296	686.4
585.726	674
586.134	673.6
586.542	667.8
586.95	698.4
587.358	663.4
587.787	666.2
588.196	656.6
588.604	664.6
589.012	676.4
589.421	666.4
589.851	669
590.259	669.4
590.668	672.2
591.076	710.4
591.485	665.8
591.894	669.8
592.324	689.4
592.733	686.6
593.142	659.4
593.551	670.2
593.96	717.8
594.369	655
594.8	669.6
595.209	677.2
595.618	656
596.028	659.6
596.437	649.8
596.847	662.8
597.256	669.6
597.687	672.2
598.097	671.2
598.507	659.6
598.917	671.4
599.327	679
599.736	671.2
600.146	683.8
600.556	670.8
600.988	682.2
601.398	667.2
601.808	680.6
602.219	659.2
602.629	667.2
603.039	671.4
603.45	706.4
603.86	670
604.271	684.4
604.703	670.2
605.114	670.6
605.525	677
605.935	679.6
606.346	688.4
606.757	671.6
607.168	667.8
607.579	663.4
607.99	683.4
608.402	672.6
608.813	673.4
609.224	663.4
609.636	655.4
610.047	657.2
610.48	672.2
610.892	680.8
611.303	685
611.715	666.4
612.127	662.4
612.539	666.4
612.95	668.8
613.362	651.2
613.774	652.2
614.186	658.8
614.599	662.2
615.011	681.4
615.423	670.4
615.835	664.2
616.248	653.2
616.66	674.2
617.073	648
617.485	659.6
617.898	667.4
618.311	665.8
618.723	654.8
619.136	698.8
619.549	683.2
619.962	688.8
620.375	653.6
620.788	664.2
621.201	652.2
621.614	670.6
622.028	658.4
622.441	668.8
622.854	671.4
623.268	655.2
623.681	670.6
624.095	673.8
624.509	671.4
624.922	675.4
625.336	653.6
625.728	667.4
626.142	670.2
626.556	685.2
626.97	679.4
627.384	662
627.799	665
628.213	677.2
628.627	663.2
629.041	659.2
629.456	660.6
629.87	666.6
630.285	675.6
630.699	668
631.093	659.4
631.507	663
631.922	663.4
632.337	678.2
632.752	643
633.167	655.8
633.582	657.8
633.997	652.4
634.412	649.4
634.806	654
635.221	651.8
635.637	670.4
636.052	641.4
636.468	658.6
636.883	687.4
637.299	654.6
637.715	642.2
638.109	656.4
638.525	649
638.941	673.4
639.357	664.2
639.773	675.8
640.189	655.8
640.584	653.2
641	659.6
641.416	649.4
641.832	651.2
642.249	660
642.665	664.6
643.06	663.4
643.477	674.8
643.894	638.6
644.31	653
644.727	648
645.123	654.8
645.54	652.4
645.957	663
646.374	678.4
646.77	662.4
647.187	688
647.604	661.2
648.021	640.8
648.439	655.8
648.835	671
649.252	663.8
649.67	656.8
650.088	660.2
650.484	672
650.902	673.8
651.32	670
651.738	646.2
652.134	663.8
652.552	684.2
652.971	671.2
653.389	657.8
653.786	677.2
654.204	681.2
654.622	650
655.019	658.2
655.438	668.2
655.857	666
656.275	671.6
656.673	650.6
657.091	741.4
657.51	667.6
657.908	676.8
658.327	675.6
658.746	650.2
659.144	666.4
659.563	672.8
659.982	658
660.38	640.2
660.8	660.4
661.219	673.8
661.617	653.6
662.037	662
662.457	674.4
662.855	646.2
663.275	694.2
663.695	664.6
664.094	666.8
664.514	654
664.934	658.6
665.333	666.2
665.753	653.2
666.152	662.4
666.572	650.4
666.993	672.4
667.392	660.6
667.812	656.6
668.212	653.6
668.632	673.2
669.053	658.8
669.453	652.8
669.874	657.2
670.273	660.8
670.694	653.8
671.116	673
671.515	675
671.937	660
672.337	661.8
672.758	657.6
673.158	672.2
673.58	647.2
673.98	672.2
674.402	672.2
674.824	661.2
675.224	656.8
675.646	659.2
676.047	656.8
676.469	658
676.869	665.8
677.292	662.4
677.693	655.6
678.115	656
678.516	663.8
678.939	665.2
679.34	663.2
679.762	669
680.164	662.6
680.586	644.4
680.988	658.6
681.411	680.6
681.812	655.4
682.236	651.4
682.637	654.2
683.061	648.2
683.462	650
683.864	651.2
684.288	658.2
684.69	643.8
685.114	666.6
685.516	663.2
685.94	655
686.342	664.4
686.766	657
687.168	656
687.571	680
687.995	656.6
688.398	651.6
688.822	655
689.225	665.4
689.628	669.4
690.052	650.6
690.456	657.2
690.88	651.6
691.284	648.2
691.687	662.4
692.112	643.8
692.515	650.6
692.919	651.2
693.344	657.6
693.747	653.8
694.173	654.6
694.577	666.8
694.98	662.8
695.406	653.6
695.81	661
696.214	669.4
696.64	669.2
697.044	659.8
697.448	665.4
697.874	662.4
698.279	657
698.684	649.6
699.11	656
699.514	651.8
699.919	646.6
700.324	650.2
700.75	660.2
701.156	665.4
701.561	669
701.987	667.8
702.393	675.4
702.798	670.4
703.203	659
703.63	647.8
704.036	652
704.442	655
704.847	648.6
705.274	658
705.68	668.8
706.086	671
706.492	645
706.92	654.2
707.326	666.2
707.732	652.2
708.139	649.4
708.545	648
708.973	649.4
709.38	655.8
709.786	643.8
710.193	676.4
710.6	662.2
711.028	647
711.435	652.2
711.842	653.6
712.249	649.4
712.656	657.2
713.064	668.4
713.492	650
713.9	661
714.307	667
714.715	653.4
715.123	667
715.53	667.6
715.938	663
716.367	655
716.775	657.8
717.184	649.6
717.592	662
718	662.8
718.408	692.2
718.816	705.2
719.225	665
719.633	653.8
720.042	657
720.472	649.8
720.881	680
721.29	656.8
721.699	644.2
722.108	653
722.517	664.4
722.926	644.6
723.335	667
723.744	661.4
724.154	657.4
724.563	659.6
724.973	662.6
725.382	651
725.792	652.4
726.202	657
726.612	681.8
727.022	655.2
727.432	647
779.813	649.2
780.223	703.2
780.634	654.6
781.044	648.8
781.454	656.6
781.865	669.8
782.276	646.8
782.686	666
783.097	657.4
783.508	653.4
783.919	652.6
784.33	667.8
784.741	664.4
785.152	643
785.563	633
785.974	649.8
786.386	664.6
786.776	639.6
787.188	648.4
787.599	639.6
788.011	655
788.423	651.8
788.835	653
789.247	645.4
789.659	631.6
790.071	653.4
790.483	696.2
790.874	648
791.286	670.4
791.699	654.8
792.111	653.8
792.524	666.8
792.937	650.4
793.349	645.2
793.741	648.8
794.154	651.6
794.567	680.2
794.98	653.4
795.393	641.8
795.785	671.6
796.198	645.4
796.612	661.4
797.026	639
797.439	632.6
797.831	651
798.245	641.2
798.659	644.6
799.073	630.6
799.487	633.6
799.88	655.8
800.294	644.2
800.708	655.6
801.123	655.8
801.516	674.6
801.93	640.6
802.345	645.2
802.76	655.8
803.153	673.2
803.568	668.8
803.983	665.2
804.377	657.4
804.792	635.2
805.207	637
805.601	664.2
806.016	694.6
806.432	645.6
806.826	692.4
807.242	671.8
807.658	647.2
808.052	647.6
808.468	646
808.884	645.8
809.279	657
809.695	661
810.111	674
810.506	659.4
810.922	679.4
811.339	648.8
811.734	670.2
812.151	652.6
812.546	648.2
812.963	650.8
813.38	663.2
813.776	649.8
814.193	683.4
814.589	646
815.006	648.2
815.402	642.4
815.82	649
816.237	652.4
816.633	653
817.051	649.8
817.448	657.6
817.866	636.8
818.262	673.2
818.68	647.6
819.077	642.2
819.495	648.2
819.892	696.4
820.311	650.8
820.708	648.4
821.127	642.4
821.524	672.8
821.943	650.8
822.34	672.4
822.759	663.4
823.157	651.8
823.576	664.2
823.974	653
824.393	778.4
824.791	653.4
825.189	649.6
825.609	658.6
826.007	652.8
826.427	640.6
826.826	649.2
827.246	655.4
827.644	637.8
828.043	666.8
828.463	651.6
828.862	659.2
829.261	662
829.682	644.2
830.081	655.4
830.502	654.6
830.901	648.4
831.301	637.8
831.722	639.6
832.121	650.8
832.521	649.8
832.943	649.6
833.342	654.4
833.742	641.2
834.164	650.8
834.564	642
834.965	654.4
835.386	650.6
835.787	649.8
836.188	651.6
836.588	651
837.01	649.4
837.411	643.2
837.812	663.8
838.213	657.6
838.636	648.2
839.037	724.8
839.438	650.6
839.84	653.4
840.263	650.8
840.664	652
841.066	650.6
841.468	654
841.891	643.4
842.293	668
842.695	650.4
843.098	657.2
843.5	645.8
843.902	657
844.326	655.4
844.729	644.4
845.131	656
845.534	648.8
845.937	665.8
846.34	675.4
846.764	647.4
847.167	653.8
847.571	633.2
847.974	651.8
848.377	641
848.781	701
849.184	665.6
849.588	647.4
849.992	645
850.396	660.2
850.821	668.6
851.225	656.2
851.63	652.4
852.034	671
852.438	647.6
852.843	796.4
853.247	646.6
853.652	644.4
854.057	672.6
854.462	645.2
854.867	654.8
855.272	676.2
855.677	658.2
