#lambda/nm	C1
208.295	532.6
208.67	492.6
209.045	447.6
209.419	451.4
209.794	685.4
210.169	667.2
210.544	802.2
210.919	687.6
211.295	670
211.67	686
212.045	693.6
212.421	676.8
212.796	725.4
213.172	681.6
213.547	681
213.923	689.8
214.299	679.4
214.675	695.2
215.051	690.4
215.427	686.6
215.803	706
216.179	685.2
216.555	664.4
216.932	694.2
217.308	688
217.684	674.2
218.061	683.8
218.438	690.6
218.814	674.4
219.191	689.6
219.568	681.6
219.945	671
220.322	690.4
220.699	683
221.076	690.4
221.453	682.2
221.83	670.8
222.208	674.2
222.585	678
222.962	685.4
223.34	687.4
223.717	682.6
224.095	676.4
224.473	680.2
224.851	679.4
225.229	668.8
225.607	694.4
225.985	666.2
226.363	674.4
226.741	685.4
227.119	678
227.497	690.8
227.876	670.6
228.254	685.4
228.633	689.4
229.011	680.4
229.39	679
229.769	681
230.148	691.8
230.527	702
230.905	684.8
231.284	690.2
231.664	676.8
232.043	699.4
232.422	695.6
232.801	677.2
233.181	685.4
233.56	685.6
233.94	683.4
234.319	662.8
234.699	687.6
235.079	739.8
235.458	728
235.838	713.4
236.218	668.8
236.598	670.2
236.978	670
237.358	677.6
237.738	681
238.119	683.6
238.499	666.6
238.88	681.6
239.26	696.6
239.641	679.6
240.021	678.2
240.402	679.8
240.783	679.6
241.163	678.4
241.544	681.6
241.925	682.2
242.306	695.2
242.687	673.2
243.069	674
243.45	691
243.831	675.4
244.212	677.8
244.594	721.2
244.975	691.8
245.357	682.8
245.739	676.8
246.12	682.4
246.502	702.6
246.884	680.8
247.266	692
247.648	685.2
248.03	712
248.412	686
248.794	689
249.176	680.2
249.559	692.2
249.941	673.2
250.323	669.2
250.706	682.6
251.089	673.6
251.471	691
251.854	678
252.237	684.2
252.62	696.4
253.002	680.6
253.385	686
253.769	701.8
254.152	683.4
254.535	686.4
254.918	674.6
255.301	685.4
255.685	682.2
256.068	674.2
256.452	706.4
256.835	697.8
257.219	700.8
257.603	698.4
257.986	672.8
258.37	683.6
258.754	666.6
259.138	685.8
259.522	695.4
259.906	679.2
260.29	685.4
260.675	684
261.059	676.6
261.443	678.6
261.828	692.4
262.212	686.8
262.597	670.8
262.981	675.6
263.366	690.8
263.751	683.6
264.136	677
264.521	677.8
264.906	677.8
265.291	691.6
265.676	681
266.061	697
266.446	702
266.831	682.6
267.217	705.2
267.602	689.8
267.987	686.2
268.373	682
268.759	693.4
269.144	686.8
269.53	682.8
269.916	686.2
270.302	687.2
270.688	687.8
271.074	677.6
271.46	698
271.846	732.2
272.232	686.2
272.618	682
273.004	676.8
273.391	687.4
273.777	699.4
274.164	692.2
274.55	697
274.937	688.8
275.324	680.4
275.71	697.2
276.097	695.8
276.484	670.2
276.871	693
277.258	698.8
277.645	669.6
278.032	687
278.419	687.6
278.807	688.6
279.194	681.8
279.581	675.2
279.969	693.4
280.356	683.2
280.744	687.8
281.131	711
281.519	701.8
281.907	681.4
282.295	675
282.682	698
283.07	681.6
283.458	695.8
283.846	689
284.235	698.2
284.623	701.2
285.011	672.2
285.399	681
285.788	682.2
286.176	680.8
286.565	703.6
286.953	682.4
287.342	676.2
287.731	684.2
288.119	679
288.508	681.2
288.897	681.4
289.286	666.2
289.675	684.2
290.064	692.2
290.453	679
290.821	686.2
291.21	700.4
291.599	680.2
291.989	684.6
292.378	696.4
292.768	709.6
293.157	699.6
293.547	692
293.936	675.4
294.326	687.6
294.716	691.4
295.106	689.8
295.496	699.4
295.886	695.8
296.276	674.4
296.666	672.2
297.056	679.8
297.446	676.2
297.836	705
298.227	686.8
298.617	692.6
299.008	699.2
299.398	677.8
299.789	679.2
300.179	688
300.57	697
300.961	675.2
301.352	686.4
301.742	695.2
302.133	692
302.524	678.6
302.915	689.2
303.307	680.6
303.698	696.6
304.089	695.8
304.48	685
304.872	678.8
305.263	689.2
305.655	679.2
306.046	688
306.438	691.4
306.829	682.8
307.221	694.4
307.613	695.4
308.005	695
308.397	697.6
308.789	720.2
309.181	718.4
309.573	711.8
309.965	703.2
310.357	688
310.749	699.8
311.142	676.4
311.534	672.6
311.926	686.8
312.319	691.2
312.711	675.4
313.104	698.2
313.497	681
313.889	731
314.282	716.2
314.675	706
315.068	697.2
315.461	701
315.854	721.4
316.247	692.2
316.64	688.6
317.033	683.4
317.405	689
317.798	679.2
318.192	685.6
318.585	680.8
318.979	695
319.372	683.2
319.766	684.8
320.16	703.8
320.553	705.4
320.947	724.6
321.341	684.2
321.735	698
322.129	674.2
322.523	711
322.917	683.8
323.311	700.2
323.705	689.2
324.099	700.6
324.494	708.2
324.888	705.2
325.282	682.6
325.677	699.8
326.071	702
326.466	702
326.861	689
327.255	697.6
327.65	696.2
328.045	702.4
328.44	694.2
328.835	686.4
329.23	688.2
329.625	714.4
330.02	682.8
330.415	709.4
330.81	687.2
331.206	688.6
331.601	678.8
331.996	679
332.37	711
332.766	676
333.161	710.8
333.557	682.8
333.953	690.4
334.348	1180.6
334.744	690
335.14	681.6
335.536	676.4
335.932	701
336.328	684.6
336.724	694.6
337.12	686.8
337.516	687.8
337.913	694.8
338.309	710.4
338.705	686.8
339.102	708.6
339.498	687.2
339.895	704
340.291	679.2
340.688	698.8
341.085	676.8
341.481	682.8
341.878	678.8
342.275	710.8
342.672	681.6
343.069	682.4
343.466	669
343.842	696
344.239	682
344.636	685.4
345.033	672.4
345.431	675.6
345.828	686.2
346.225	677.4
346.623	722.4
347.02	686
347.418	689.6
347.816	696
348.213	669.8
348.611	695.2
349.009	674.2
349.407	697.4
349.805	669.4
350.203	674.4
350.601	696.6
350.999	676.8
351.397	757.6
351.795	686.4
352.193	689.8
352.57	685.2
352.969	703.8
353.367	680.2
353.766	669.2
354.164	684.6
354.563	686
354.961	677.8
355.36	680.6
355.759	683.6
356.158	673.4
356.557	680.2
356.956	672.4
357.355	677.2
357.754	679.4
358.153	692.4
358.552	722.6
358.951	682.2
359.35	693
359.75	679.4
360.149	673.2
360.527	667
360.926	676
361.326	685.6
361.726	688
362.125	680.4
362.525	686
362.925	677.2
363.325	681
363.724	680.8
364.124	676.2
364.524	672.2
364.924	676.6
365.324	696.8
365.725	651.8
366.125	682.8
366.525	678.4
366.904	667
367.304	659.4
367.705	699.4
368.105	701.6
368.506	685.2
368.906	679.8
369.307	671.4
369.708	688
370.108	665.4
370.509	686.2
370.91	667.4
371.311	684.6
371.712	689.2
372.113	674.8
372.514	662.8
372.894	681.4
373.295	675.8
373.696	686.8
374.097	681.4
374.499	716
374.9	679.4
375.301	672.6
375.703	688
376.105	679.4
376.506	683.4
376.908	693
377.309	671
377.711	681.4
378.113	685.4
378.493	684
378.895	681
379.297	687.4
379.699	667.2
380.102	671.4
380.504	677.2
380.906	674.2
381.308	702.6
381.71	686.8
382.113	682.6
382.515	674.6
382.918	687.8
383.299	677.8
383.701	690.2
384.104	681.8
384.507	652.2
384.909	687.2
385.312	664.2
385.715	672
386.118	678.6
386.521	667.4
386.924	693.2
387.327	670.8
387.709	664
388.112	663.4
388.515	686.8
388.918	673.2
389.322	684.6
389.725	677
390.129	707.6
390.532	682.6
390.936	677.8
391.339	675
391.743	678.8
392.125	667.4
392.529	694.6
392.933	703
393.337	689.2
393.74	682.4
394.144	682.6
394.548	682.6
394.953	686.8
395.357	687.8
395.761	678.2
396.144	687.2
396.548	679.2
396.952	681.6
397.357	685.2
397.761	680.2
398.166	668
398.57	674.2
398.975	666.4
399.379	689.2
399.763	740.8
400.168	685.8
400.572	683.2
400.977	681.4
401.382	702.2
401.787	690
402.192	695.2
402.597	703.2
403.002	659.6
403.386	688.4
403.791	701
404.197	679.2
404.602	682.4
405.007	678.8
405.413	668.2
405.818	686
406.224	670
406.608	670
407.014	670.6
407.42	698.2
407.825	670.2
408.231	684.8
408.637	690.8
409.043	697
409.449	675.4
409.834	669.8
410.24	680.4
410.646	695.6
411.052	698
411.458	684.4
411.865	688.4
412.271	695.6
412.677	692.2
413.062	679.6
413.469	677.6
413.875	710.8
414.282	694
414.689	686.2
415.095	695
415.502	672.8
415.888	690.4
416.294	667.4
416.701	729.4
417.108	677.4
417.515	696.8
417.923	675
418.33	700.4
418.715	691
419.123	681
419.53	664.8
419.937	685.2
420.345	703.6
420.752	676.8
421.16	696
421.546	676
421.953	697
422.361	673.6
422.769	683.8
423.177	675
423.585	711.2
423.992	714.4
424.379	691
424.787	698.2
425.195	704.8
425.603	680.4
426.011	694.8
426.419	701.4
426.806	692.8
427.214	693.2
427.623	697
428.031	698.8
428.44	692
428.848	699.6
429.235	713.2
429.644	696.2
430.053	688
430.461	700.6
430.87	729.8
431.279	705
431.666	692
432.075	703
432.484	716.6
432.893	702.2
433.302	737.4
433.711	767.2
434.099	720.6
434.508	720
434.918	721
435.327	740.2
435.737	746
436.125	751.6
436.534	764.6
436.944	759.4
437.353	760.8
437.763	795.8
438.173	774.6
438.561	795.8
438.971	776.8
439.381	791.2
439.791	794.4
440.201	783.2
440.589	808.6
440.999	832.8
441.409	819.8
441.819	810.6
442.23	837
442.619	839.8
443.029	837.2
443.439	849.4
443.85	867.4
444.26	872
444.649	862.6
445.06	847.4
445.471	859.4
445.881	869
446.292	881
446.682	899
447.092	862.2
447.503	933.8
447.914	879.8
448.325	878
448.715	886.8
449.126	880.8
449.537	894
449.948	893.6
450.338	888.4
450.75	889.8
451.161	898.6
451.572	910.6
451.984	899.4
452.374	887.8
452.786	890.8
453.197	909.6
453.609	905.8
453.999	898.2
454.411	891.2
454.823	932.6
455.235	909.8
455.647	904
456.037	913.4
456.449	877.2
456.862	907.6
457.274	915.6
457.665	901
458.077	912.4
458.489	950.8
458.902	914.6
459.293	922
459.705	919.6
460.118	922.4
460.53	919.4
460.921	910.4
461.334	926.4
461.747	926
462.16	930
462.551	940.6
462.964	924.4
463.377	910
463.79	924
464.182	932
464.595	921.6
465.008	929.8
465.421	929.6
465.813	916.2
466.226	939.8
466.64	935.8
467.053	980.6
467.445	951
467.859	942.6
468.272	925.8
468.686	936.2
469.078	922.4
469.492	917.4
469.906	933.4
470.298	939.4
470.712	930.4
471.126	993.6
471.54	921.4
471.933	919.8
472.347	925.2
472.761	933.8
473.175	915.6
473.568	932.6
473.982	912.8
474.397	918
474.79	923.6
475.204	934.4
475.619	930.6
476.033	926.8
476.426	932.6
476.841	913.2
477.256	944.8
477.649	923
478.064	909.8
478.479	912.2
478.872	909
479.287	899.4
479.702	911.6
480.118	915.6
480.511	909.6
480.927	914.6
481.342	905.8
481.736	918.2
482.151	908
482.566	918.8
482.96	915.6
483.376	918.8
483.792	901.2
484.186	910.6
484.602	908.2
485.017	910.6
485.412	899
485.827	909.8
486.243	897
486.638	930.6
487.054	905.8
487.47	918.2
487.865	887.2
488.281	891
488.697	885.2
489.092	886.6
489.508	886.4
489.925	901.2
490.32	874.6
490.736	882.8
491.153	876.4
491.548	886.4
491.964	899
492.381	864.2
492.776	882.6
493.193	881.2
493.61	874.8
494.006	883
494.422	879.6
494.84	855.4
495.235	884.8
495.652	864.6
496.069	855
496.465	858
496.883	871
497.3	889.8
497.696	857.2
498.113	871.6
498.509	848.2
498.927	840
499.344	861.2
499.741	843.6
500.158	860
500.576	877.6
500.973	862.2
501.39	838
501.787	837
502.205	849.6
502.623	841
503.02	834.8
503.438	824.8
503.856	841
504.253	852.8
504.671	836
505.068	836
505.486	833.2
505.905	841
506.302	835
506.72	832.8
507.118	823.2
507.536	842.6
507.955	818.6
508.352	821
508.771	834
509.169	833.8
509.587	807.8
510.006	813.4
510.404	798
510.823	811.6
511.221	807.4
511.64	808.2
512.038	831.4
512.457	806.6
512.877	797.8
513.275	794.8
513.694	794.4
514.092	807.6
514.512	817.8
514.91	801
515.33	798.2
515.749	801.6
516.148	796.6
516.568	792.8
516.966	793.8
517.386	795.2
517.785	788.8
518.205	788.6
518.603	787.8
519.024	771.6
519.444	779.2
519.843	804
520.263	790
520.662	796
521.082	775
521.481	785.2
521.902	776.6
522.301	787.2
522.722	784.6
523.121	771.8
523.542	771.8
523.963	784.2
524.362	770.6
524.783	771.8
525.183	771.6
525.604	766.2
526.003	759.6
526.425	758.2
526.824	772.6
527.246	770
527.646	789.6
528.067	767
528.467	761
528.888	762.4
529.289	755.4
529.71	761.4
530.11	754.4
530.532	748.6
530.932	748.4
531.354	741.6
531.755	789.8
532.176	754.4
532.577	754.2
532.999	741.2
533.4	741.2
533.822	758.8
534.223	751.4
534.645	739.2
535.046	743.4
535.468	743.6
535.869	759.4
536.292	734.4
536.693	788.8
537.115	746.6
537.516	731.2
537.939	731.4
538.34	761.2
538.742	748.6
539.165	744
539.566	746.4
539.989	728.8
540.391	727.2
540.814	730.6
541.216	738.4
541.639	740.2
542.041	748.8
542.464	727.8
542.866	731
543.268	722.6
543.691	741.4
544.093	746.2
544.517	759.6
544.919	727.2
545.343	762.2
545.745	719
546.147	723
546.571	731.2
546.974	714.6
547.398	731.2
547.8	742.8
548.224	719.2
548.627	709.6
549.03	727
549.454	717.6
549.857	704
550.281	713.6
550.684	728.2
551.087	726
551.512	717.4
551.915	722
552.34	722.8
552.743	724.8
553.146	719.6
553.571	718.2
553.975	743.4
554.399	700.6
554.803	767
555.207	714.4
555.632	712.6
556.036	714.4
556.461	702
556.865	706.6
557.268	701.8
557.694	707
558.098	714.2
558.502	716.4
558.927	707.2
559.332	719.2
559.736	707.4
560.162	714.4
560.566	699.8
560.992	706.2
561.396	717
561.801	711.2
562.227	707.6
562.631	707.2
563.036	698.8
563.462	709.8
563.867	707.6
564.272	693.4
564.698	705.4
565.103	687.2
565.508	723.8
565.935	703
566.34	701.6
566.745	717.8
567.172	698
567.577	719
567.982	715
568.409	698.6
568.815	690
569.22	704.6
569.626	713.8
570.053	682.6
570.459	697.2
570.865	699.6
571.292	709.2
571.698	700.2
572.104	672.8
572.531	680.6
572.937	704
573.343	692.2
573.75	682.2
574.177	692.4
574.583	692.6
574.99	686
575.396	691.8
575.824	691
576.231	701
576.637	690
577.065	712.8
577.472	683.8
577.879	688.6
578.286	701.2
578.714	690.6
579.121	689.4
579.528	690
579.935	701
580.364	689.2
580.771	669
581.178	679.4
581.585	687.8
582.014	690.2
582.421	681.8
582.829	687.2
583.236	691.4
583.644	670.4
584.073	678
584.481	688
584.889	673.4
585.296	688.4
585.726	687
586.134	676.2
586.542	679.8
586.95	710
587.358	674.2
587.787	683
588.196	669.6
588.604	682
589.012	678.4
589.421	673.8
589.851	668
590.259	684
590.668	667.6
591.076	718.6
591.485	671.2
591.894	672.2
592.324	691.2
592.733	694.2
593.142	667.6
593.551	678.6
593.96	688.4
594.369	663.4
594.8	667
595.209	671.8
595.618	652.2
596.028	667.6
596.437	661.8
596.847	681.8
597.256	667.8
597.687	674.4
598.097	672.2
598.507	663.4
598.917	678.6
599.327	684
599.736	678.6
600.146	689.4
600.556	672.4
600.988	694
601.398	665
601.808	681.8
602.219	661.2
602.629	672.4
603.039	676
603.45	700.4
603.86	674.4
604.271	690.4
604.703	665.2
605.114	671.6
605.525	671
605.935	686.4
606.346	693.8
606.757	675.6
607.168	673.6
607.579	662.6
607.99	679
608.402	680.6
608.813	678
609.224	668
609.636	651
610.047	660
610.48	669.8
610.892	677.2
611.303	685
611.715	669
612.127	664.2
612.539	669
612.95	660.2
613.362	657.8
613.774	657.6
614.186	657
614.599	665.2
615.011	677
615.423	666.2
615.835	668.8
616.248	649.8
616.66	662.8
617.073	657.2
617.485	674.4
617.898	672.4
618.311	668.8
618.723	672.4
619.136	701.2
619.549	677.4
619.962	699.2
620.375	671.4
620.788	677.8
621.201	651.4
621.614	676.8
622.028	668
622.441	674.2
622.854	683
623.268	656.8
623.681	674.6
624.095	667.4
624.509	675.8
624.922	674.2
625.336	656.4
625.728	671.2
626.142	680
626.556	689.2
626.97	673
627.384	662.2
627.799	663.6
628.213	681.8
628.627	671.6
629.041	659.8
629.456	673.4
629.87	671.8
630.285	674.6
630.699	680.8
631.093	666
631.507	663.2
631.922	671
632.337	677.2
632.752	659.8
633.167	669.8
633.582	665.4
633.997	665.6
634.412	663.4
634.806	660
635.221	662
635.637	679.2
636.052	657.4
636.468	671.2
636.883	674.4
637.299	658.8
637.715	649.2
638.109	654
638.525	643.8
638.941	679
639.357	665.4
639.773	669.8
640.189	659.8
640.584	662.8
641	667.4
641.416	648
641.832	655.6
642.249	655.2
642.665	661.4
643.06	664.6
643.477	665.4
643.894	638.2
644.31	666.8
644.727	664
645.123	654.8
645.54	652.2
645.957	665.6
646.374	685.6
646.77	668.6
647.187	692.2
647.604	670.2
648.021	649.4
648.439	670
648.835	667.4
649.252	662
649.67	662.8
650.088	661.6
650.484	662.4
650.902	681
651.32	666.2
651.738	657.8
652.134	666.2
652.552	680.8
652.971	666.6
653.389	664.6
653.786	678
654.204	691.8
654.622	658.4
655.019	659.2
655.438	668.6
655.857	670.8
656.275	661.8
656.673	651.6
657.091	746
657.51	660.6
657.908	671
658.327	677.2
658.746	647.6
659.144	669.2
659.563	680
659.982	666.6
660.38	653.4
660.8	660.6
661.219	670.2
661.617	661.8
662.037	657
662.457	679.2
662.855	640
663.275	696.6
663.695	661.6
664.094	669.2
664.514	661.2
664.934	651.8
665.333	676.4
665.753	652
666.152	656
666.572	651.2
666.993	680
667.392	656.8
667.812	647.4
668.212	655.6
668.632	663.6
669.053	652.8
669.453	659.6
669.874	656.2
670.273	676.6
670.694	653.4
671.116	668.4
671.515	670
671.937	653.4
672.337	663.6
672.758	660.4
673.158	670.6
673.58	657
673.98	667.4
674.402	679.4
674.824	651.6
675.224	657.4
675.646	657
676.047	657.6
676.469	663.6
676.869	671.6
677.292	659
677.693	657
678.115	653.2
678.516	658.6
678.939	659.6
679.34	651.2
679.762	670.8
680.164	665.4
680.586	648.6
680.988	657
681.411	680.8
681.812	660.4
682.236	643.2
682.637	650
683.061	648
683.462	658.2
683.864	656.2
684.288	665
684.69	638.4
685.114	670.2
685.516	668.4
685.94	654
686.342	676.2
686.766	655
687.168	651
687.571	671.4
687.995	654
688.398	651
688.822	655
689.225	671.6
689.628	681.4
690.052	649.8
690.456	663
690.88	655.8
691.284	655
691.687	663.4
692.112	650.4
692.515	647.6
692.919	658.2
693.344	665.6
693.747	659
694.173	650.6
694.577	667
694.98	662.8
695.406	663.8
695.81	663.4
696.214	663
696.64	658.4
697.044	660.8
697.448	665.4
697.874	666.6
698.279	642
698.684	645.6
699.11	655
699.514	655.6
699.919	654.6
700.324	638.8
700.75	652.4
701.156	662.8
701.561	671
701.987	661
702.393	674.8
702.798	671.2
703.203	664.4
703.63	650.8
704.036	649.4
704.442	654
704.847	650.2
705.274	655.2
705.68	667.4
706.086	659
706.492	648.8
706.92	655
707.326	671.2
707.732	656.8
708.139	652.2
708.545	659.2
708.973	656.8
709.38	661.6
709.786	645.8
710.193	678.8
710.6	661.8
711.028	652.8
711.435	657.4
711.842	652
712.249	655.4
712.656	651
713.064	670.8
713.492	647
713.9	655.6
714.307	650.8
714.715	654.6
715.123	665.6
715.53	657.2
715.938	663.8
716.367	656
716.775	654.4
717.184	651.8
717.592	665.2
718	668.8
718.408	695.4
718.816	704.4
719.225	659.6
719.633	653.6
720.042	654
720.472	650.6
720.881	673.2
721.29	658.8
721.699	642
722.108	655.2
722.517	655.6
722.926	659
723.335	672.6
723.744	658.4
724.154	655
724.563	663.6
724.973	659.4
725.382	658
725.792	661.8
726.202	646.8
726.612	684.2
727.022	661.8
727.432	653.6
779.813	651.2
780.223	720.2
780.634	652.6
781.044	655.6
781.454	666.4
781.865	667.4
782.276	645.4
782.686	668
783.097	654
783.508	664
783.919	665
784.33	679.6
784.741	673.4
785.152	659
785.563	641
785.974	650.8
786.386	667
786.776	651.4
787.188	661.2
787.599	651.4
788.011	665.4
788.423	655
788.835	652.6
789.247	635.6
789.659	645.2
790.071	660.2
790.483	698.2
790.874	656.6
791.286	653
791.699	652.2
792.111	652
792.524	651.8
792.937	651.8
793.349	645.6
793.741	657
794.154	650.4
794.567	682.2
794.98	658.6
795.393	640
795.785	671.2
796.198	651.8
796.612	658.8
797.026	649.8
797.439	633.2
797.831	643.6
798.245	643.4
798.659	639
799.073	656
799.487	650.2
799.88	650.2
800.294	652.6
800.708	657.2
801.123	650.2
801.516	675
801.93	640.6
802.345	641
802.76	649.6
803.153	666.4
803.568	669.6
803.983	659.6
804.377	654.6
804.792	640.4
805.207	635.8
805.601	655.2
806.016	690.8
806.432	649.4
806.826	689.6
807.242	669.6
807.658	653.8
808.052	647
808.468	655.6
808.884	649.8
809.279	654.6
809.695	672.6
810.111	678.6
810.506	658.8
810.922	673.8
811.339	649.6
811.734	658.2
812.151	642.8
812.546	640.8
812.963	641
813.38	660.6
813.776	656.2
814.193	679
814.589	642.6
815.006	642
815.402	652
815.82	641.6
816.237	654.4
816.633	657.8
817.051	649.8
817.448	651.6
817.866	651.2
818.262	681.4
818.68	653.2
819.077	649
819.495	644.6
819.892	696.2
820.311	645.8
820.708	651.4
821.127	651.8
821.524	667.8
821.943	653.8
822.34	676.6
822.759	659
823.157	651
823.576	668.6
823.974	664.4
824.393	774.4
824.791	650.4
825.189	646
825.609	647
826.007	656
826.427	642.6
826.826	652.2
827.246	659.2
827.644	635.6
828.043	658.2
828.463	646.2
828.862	666.2
829.261	661.4
829.682	643.2
830.081	645
830.502	648
830.901	656.8
831.301	641.2
831.722	635
832.121	653
832.521	645
832.943	645
833.342	653.8
833.742	639.4
834.164	649.8
834.564	640.2
834.965	639.2
835.386	651.6
835.787	656.6
836.188	660
836.588	654.4
837.01	645.4
837.411	641.2
837.812	653
838.213	656.6
838.636	655.6
839.037	737
839.438	660.2
839.84	653.4
840.263	661
840.664	652.4
841.066	649
841.468	659.2
841.891	644.8
842.293	665.4
842.695	660.8
843.098	656.8
843.5	647.2
843.902	665.6
844.326	659
844.729	654.8
845.131	675.8
845.534	652.6
845.937	665.4
846.34	667.2
846.764	652.2
847.167	661.2
847.571	643.4
847.974	652.8
848.377	655.2
848.781	708.4
849.184	664.2
849.588	642.8
849.992	646.8
850.396	650.2
850.821	674.8
851.225	668.2
851.63	654.6
852.034	663.2
852.438	649.6
852.843	800.4
853.247	643.8
853.652	641.8
854.057	676.4
854.462	654
854.867	646.6
855.272	685.8
855.677	644.6
856.082	646.2
856.487	642.4
856.893	655.8
857.298	647.2
857.704	642.2
858.11	649.4
