#lambda/nm	C1
208.295	541
208.67	486.8
209.045	446.8
209.419	454.2
209.794	677.6
210.169	657
210.544	806.2
210.919	686.6
211.295	667
211.67	679.8
212.045	681.6
212.421	674.2
212.796	719.8
213.172	681.2
213.547	673.6
213.923	671.4
214.299	670.4
214.675	693.2
215.051	678.6
215.427	695.4
215.803	709.4
216.179	688.2
216.555	670.4
216.932	691.8
217.308	671.4
217.684	673
218.061	680.4
218.438	673.4
218.814	676.4
219.191	691.2
219.568	681.4
219.945	674.6
220.322	685
220.699	686.8
221.076	698
221.453	680.6
221.83	685
222.208	674.2
222.585	676.8
222.962	690.4
223.34	689
223.717	685.4
224.095	686.6
224.473	678.4
224.851	680.6
225.229	672.6
225.607	697.2
225.985	667.6
226.363	686.2
226.741	676
227.119	681.4
227.497	704
227.876	667.6
228.254	689.8
228.633	687.4
229.011	690.6
229.39	688
229.769	688.6
230.148	691.2
230.527	700.8
230.905	683.4
231.284	684.8
231.664	679.4
232.043	709.4
232.422	699.4
232.801	673.8
233.181	699.8
233.56	679.6
233.94	679.4
234.319	669.6
234.699	681.8
235.079	726.4
235.458	731
235.838	713
236.218	679.6
236.598	678.2
236.978	681
237.358	673.6
237.738	673.6
238.119	689.6
238.499	670.4
238.88	675.2
239.26	701.2
239.641	671
240.021	669.6
240.402	675.6
240.783	676.6
241.163	674.6
241.544	690
241.925	674.4
242.306	694.2
242.687	675.4
243.069	685.4
243.45	693
243.831	670.8
244.212	673
244.594	715.6
244.975	689.8
245.357	681.2
245.739	688.6
246.12	679.6
246.502	707
246.884	676.4
247.266	687
247.648	688.8
248.03	709.8
248.412	690.4
248.794	690.2
249.176	688.4
249.559	693.6
249.941	681.6
250.323	672.2
250.706	674.2
251.089	686.4
251.471	689
251.854	685.8
252.237	681.6
252.62	690.4
253.002	682.8
253.385	686.2
253.769	701.4
254.152	687.8
254.535	686.2
254.918	674.6
255.301	668
255.685	674.4
256.068	668.2
256.452	710
256.835	690.6
257.219	687
257.603	702.4
257.986	672.4
258.37	689.4
258.754	673
259.138	696.2
259.522	707.2
259.906	680.4
260.29	683.4
260.675	678.4
261.059	687
261.443	670.4
261.828	690.8
262.212	686
262.597	673.8
262.981	678.2
263.366	698.2
263.751	683.2
264.136	670.6
264.521	671.4
264.906	675.6
265.291	693.2
265.676	672.8
266.061	696.6
266.446	706
266.831	683.4
267.217	697.8
267.602	684
267.987	686.8
268.373	672.2
268.759	689.8
269.144	684.8
269.53	685.8
269.916	673.6
270.302	669.6
270.688	682
271.074	678.8
271.46	700
271.846	713.2
272.232	683
272.618	682.4
273.004	680.4
273.391	692.4
273.777	699.8
274.164	689.8
274.55	694.2
274.937	690.4
275.324	681.2
275.71	693.6
276.097	687.8
276.484	680
276.871	684.8
277.258	681.2
277.645	672.8
278.032	681
278.419	681.6
278.807	675.8
279.194	674.6
279.581	670.2
279.969	688.6
280.356	690.4
280.744	679.8
281.131	718.6
281.519	691
281.907	681
282.295	681.2
282.682	696.2
283.07	689.6
283.458	690.6
283.846	701.8
284.235	690.6
284.623	696.2
285.011	685
285.399	687.8
285.788	686.8
286.176	671
286.565	700.6
286.953	675.6
287.342	687.4
287.731	677.8
288.119	674
288.508	680.4
288.897	682.6
289.286	666.6
289.675	685
290.064	682.4
290.453	674
290.821	679.8
291.21	712.8
291.599	680.6
291.989	694.2
292.378	695.4
292.768	705.2
293.157	685.4
293.547	686.4
293.936	691.2
294.326	686
294.716	683.4
295.106	691
295.496	693
295.886	701.2
296.276	686.2
296.666	688.6
297.056	678.6
297.446	671.2
297.836	703.8
298.227	680
298.617	695
299.008	697
299.398	691.6
299.789	688.8
300.179	693.2
300.57	687.2
300.961	687.2
301.352	685.2
301.742	691
302.133	686.6
302.524	681.4
302.915	683.6
303.307	683
303.698	693
304.089	690
304.48	682.6
304.872	689.2
305.263	688.4
305.655	674.2
306.046	691.8
306.438	691
306.829	672.2
307.221	707
307.613	687.2
308.005	705.4
308.397	697.2
308.789	706.2
309.181	716.8
309.573	706.4
309.965	707.6
310.357	687.2
310.749	698
311.142	678
311.534	685.4
311.926	700.2
312.319	686.2
312.711	677.2
313.104	713.8
313.497	692
313.889	732.4
314.282	710.4
314.675	718.8
315.068	690.8
315.461	693.2
315.854	719.2
316.247	693.8
316.64	690.2
317.033	690
317.405	689.6
317.798	692
318.192	686.8
318.585	677
318.979	691.6
319.372	686.6
319.766	687.4
320.16	693
320.553	711.4
320.947	705.2
321.341	685.4
321.735	685.8
322.129	668.2
322.523	719.6
322.917	672.2
323.311	703.4
323.705	692.2
324.099	699.4
324.494	707.8
324.888	699.8
325.282	688.8
325.677	701.4
326.071	694.4
326.466	707
326.861	699.6
327.255	695.4
327.65	708.6
328.045	703.4
328.44	686.8
328.835	686
329.23	685.6
329.625	706.4
330.02	683.6
330.415	711.4
330.81	695
331.206	699.6
331.601	676.2
331.996	700.8
332.37	715
332.766	678.6
333.161	716.2
333.557	684.4
333.953	693.8
334.348	1014.6
334.744	684.4
335.14	674.2
335.536	678.4
335.932	703.4
336.328	685
336.724	694.2
337.12	684
337.516	685.4
337.913	693.8
338.309	712.2
338.705	681
339.102	697
339.498	688.8
339.895	705.2
340.291	680.8
340.688	703.2
341.085	675.8
341.481	692.8
341.878	686.4
342.275	715.8
342.672	685.4
343.069	672.8
343.466	673.6
343.842	688.4
344.239	671.6
344.636	684.2
345.033	669.2
345.431	673.4
345.828	685.8
346.225	673.2
346.623	719.2
347.02	677
347.418	687.6
347.816	700.4
348.213	678.8
348.611	688.6
349.009	683
349.407	692
349.805	668.6
350.203	668.6
350.601	704
350.999	680.2
351.397	755.6
351.795	687.2
352.193	704
352.57	695.2
352.969	701.8
353.367	676.4
353.766	670.8
354.164	682
354.563	696.2
354.961	683.8
355.36	682.4
355.759	682.2
356.158	676.2
356.557	674.4
356.956	672.6
357.355	668
357.754	693.6
358.153	686.2
358.552	708.6
358.951	682.4
359.35	696.4
359.75	682.4
360.149	673.8
360.527	670
360.926	659
361.326	683.4
361.726	672.4
362.125	676.8
362.525	687.2
362.925	680.6
363.325	685.4
363.724	682.4
364.124	675.2
364.524	672
364.924	674.6
365.324	687.4
365.725	664.6
366.125	692.4
366.525	686.6
366.904	672
367.304	661.2
367.705	693
368.105	696
368.506	679.4
368.906	691
369.307	679.8
369.708	686
370.108	662.6
370.509	692.8
370.91	677
371.311	678.2
371.712	691.4
372.113	675.2
372.514	664.8
372.894	673.4
373.295	671.2
373.696	689.4
374.097	685.2
374.499	708.2
374.9	680.4
375.301	672.8
375.703	669.8
376.105	670.8
376.506	686.2
376.908	678
377.309	671.8
377.711	679.4
378.113	676.8
378.493	685.8
378.895	678.2
379.297	686.8
379.699	664.2
380.102	687
380.504	675.6
380.906	676.2
381.308	707
381.71	678.2
382.113	682
382.515	672.6
382.918	692.2
383.299	668.4
383.701	693.4
384.104	683.4
384.507	657
384.909	676.6
385.312	656.2
385.715	660.8
386.118	673
386.521	661.2
386.924	691.2
387.327	672.4
387.709	666.6
388.112	659
388.515	669.8
388.918	666.4
389.322	682.2
389.725	673.4
390.129	710
390.532	684
390.936	674.2
391.339	667.4
391.743	681.8
392.125	669
392.529	683.2
392.933	684.8
393.337	676.6
393.74	684.8
394.144	676.2
394.548	662.6
394.953	680
395.357	689.6
395.761	675.8
396.144	681.2
396.548	676.4
396.952	683.6
397.357	674.8
397.761	672.8
398.166	668.6
398.57	682.6
398.975	662.4
399.379	675.6
399.763	736.4
400.168	679.8
400.572	678.6
400.977	671.2
401.382	706
401.787	688.6
402.192	701.4
402.597	703.8
403.002	663.2
403.386	698
403.791	691.4
404.197	670
404.602	670.6
405.007	673.6
405.413	680.4
405.818	675.8
406.224	672.4
406.608	668.4
407.014	657.6
407.42	695.4
407.825	663.8
408.231	686.6
408.637	673.2
409.043	697
409.449	672.8
409.834	677.4
410.24	680.8
410.646	688
411.052	690.4
411.458	684.4
411.865	691.6
412.271	689.6
412.677	678.6
413.062	678.6
413.469	673.6
413.875	708.4
414.282	697.6
414.689	683.2
415.095	688.8
415.502	677.2
415.888	680.8
416.294	656
416.701	722.4
417.108	670.2
417.515	687.2
417.923	678.4
418.33	698.6
418.715	686.2
419.123	675.4
419.53	680
419.937	680
420.345	695.6
420.752	668.8
421.16	690.6
421.546	676.4
421.953	684.4
422.361	667
422.769	678.8
423.177	665.6
423.585	703.6
423.992	709.4
424.379	687
424.787	685.4
425.195	702.4
425.603	685.4
426.011	693.2
426.419	695.6
426.806	685
427.214	684.8
427.623	695
428.031	703.6
428.44	692
428.848	702.2
429.235	708.2
429.644	674.8
430.053	682.8
430.461	704
430.87	717
431.279	704.2
431.666	669.8
432.075	688.6
432.484	695.8
432.893	687
433.302	707.8
433.711	741.4
434.099	697.8
434.508	683.2
434.918	671
435.327	690.2
435.737	679.2
436.125	674.2
436.534	686.8
436.944	688.4
437.353	685.8
437.763	705.2
438.173	680.8
438.561	695.4
438.971	668.6
439.381	680.2
439.791	686.2
440.201	657.8
440.589	683.6
440.999	689.2
441.409	685.2
441.819	671.2
442.23	696
442.619	695
443.029	683
443.439	685.8
443.85	693.8
444.26	691
444.649	688.4
445.06	680
445.471	675.8
445.881	677.2
446.292	700.2
446.682	705
447.092	661.4
447.503	733.6
447.914	675.2
448.325	676
448.715	674.2
449.126	670
449.537	685
449.948	681.8
450.338	671.2
450.75	681.2
451.161	676.4
451.572	682
451.984	668
452.374	653.6
452.786	669.2
453.197	672.2
453.609	683.8
453.999	661.8
454.411	671.8
454.823	683.8
455.235	683
455.647	673.4
456.037	680.2
456.449	654
456.862	665
457.274	675.6
457.665	671.8
458.077	686.8
458.489	712.8
458.902	669.6
459.293	679.4
459.705	675
460.118	674
460.53	679.4
460.921	672.6
461.334	682.6
461.747	674
462.16	695.6
462.551	691.4
462.964	681
463.377	656.8
463.79	673.8
464.182	683.6
464.595	659.4
465.008	678.2
465.421	679
465.813	667.6
466.226	683
466.64	672
467.053	730.4
467.445	682.2
467.859	693
468.272	677.8
468.686	682
469.078	669.6
469.492	660
469.906	676.8
470.298	676.4
470.712	664
471.126	736
471.54	664
471.933	662
472.347	674.6
472.761	663
473.175	663
473.568	675.6
473.982	657.4
474.397	671.8
474.79	679
475.204	679.6
475.619	667.8
476.033	678.2
476.426	675.2
476.841	653.2
477.256	697.6
477.649	669
478.064	656.8
478.479	667.8
478.872	673.8
479.287	648.6
479.702	659.6
480.118	669.4
480.511	672.6
480.927	670
481.342	669.6
481.736	671.8
482.151	664.4
482.566	689.8
482.96	675.6
483.376	678
483.792	670.2
484.186	672.8
484.602	668
485.017	673.4
485.412	672.4
485.827	675.8
486.243	674.4
486.638	690.8
487.054	674.6
487.47	691.8
487.865	663.8
488.281	661.6
488.697	658.2
489.092	666
489.508	660.8
489.925	684.6
490.32	661.8
490.736	673.6
491.153	674.2
491.548	670.2
491.964	680
492.381	657
492.776	679.6
493.193	671.4
493.61	680.4
494.006	666.6
494.422	667.4
494.84	662
495.235	678.4
495.652	667.2
496.069	677.4
496.465	663.8
496.883	670.8
497.3	704.4
497.696	669.6
498.113	676.6
498.509	657.6
498.927	657.4
499.344	654.6
499.741	661.4
500.158	671.4
500.576	683.2
500.973	665.2
501.39	658.8
501.787	656.6
502.205	673.6
502.623	664.6
503.02	650.8
503.438	665.4
503.856	675.4
504.253	671.8
504.671	672.4
505.068	664.8
505.486	657.8
505.905	694.6
506.302	676.6
506.72	680
507.118	665.2
507.536	666.6
507.955	660
508.352	672.4
508.771	672.4
509.169	680.8
509.587	656.6
510.006	666.8
510.404	653.2
510.823	660.2
511.221	654.8
511.64	655
512.038	681
512.457	669.6
512.877	661.2
513.275	661
513.694	661.2
514.092	658.6
514.512	672.8
514.91	660.6
515.33	666.4
515.749	670.8
516.148	675.8
516.568	678
516.966	663.8
517.386	662.4
517.785	669.2
518.205	656.2
518.603	667.4
519.024	658.6
519.444	671.4
519.843	676.2
520.263	672.6
520.662	671.6
521.082	660.2
521.481	667.8
521.902	663.4
522.301	671.8
522.722	671.6
523.121	659.6
523.542	663
523.963	664.8
524.362	673.8
524.783	667
525.183	671.6
525.604	668.6
526.003	665.8
526.425	658.8
526.824	675.4
527.246	685.8
527.646	682.4
528.067	662
528.467	666.2
528.888	672.2
529.289	669.6
529.71	665.2
530.11	666.2
530.532	663.4
530.932	658.4
531.354	657.6
531.755	697.6
532.176	675.4
532.577	664
532.999	664
533.4	664
533.822	676.2
534.223	670
534.645	661.2
535.046	661.2
535.468	669
535.869	679.6
536.292	654.8
536.693	705.8
537.115	668
537.516	665.6
537.939	660.2
538.34	688.8
538.742	680.2
539.165	668
539.566	662.8
539.989	662.6
540.391	667.2
540.814	671
541.216	673.6
541.639	668
542.041	674
542.464	658.2
542.866	658.2
543.268	654.6
543.691	670.6
544.093	675.4
544.517	686.2
544.919	663.6
545.343	686
545.745	653.6
546.147	672.4
546.571	662.8
546.974	651.2
547.398	659
547.8	683.4
548.224	665.2
548.627	653
549.03	670
549.454	656.8
549.857	650.8
550.281	652
550.684	658.4
551.087	677
551.512	667.6
551.915	668
552.34	662.6
552.743	661.4
553.146	670.6
553.571	660.8
553.975	683.4
554.399	661.6
554.803	713.4
555.207	661.2
555.632	659.2
556.036	668.6
556.461	656
556.865	663
557.268	656.6
557.694	650
558.098	665
558.502	661.8
558.927	655.2
559.332	667.6
559.736	665.2
560.162	671.8
560.566	663.8
560.992	678.6
561.396	669.4
561.801	662.6
562.227	664
562.631	658.4
563.036	664.8
563.462	671
563.867	666.4
564.272	651.6
564.698	675
565.103	653.4
565.508	693
565.935	661.6
566.34	668.2
566.745	672.6
567.172	663.2
567.577	686.6
567.982	677
568.409	664.4
568.815	654
569.22	657.6
569.626	674
570.053	650.2
570.459	671.6
570.865	672.8
571.292	664.2
571.698	664.2
572.104	651.6
572.531	663.8
572.937	679.2
573.343	659
573.75	659
574.177	658.2
574.583	671.8
574.99	663.8
575.396	666
575.824	663.4
576.231	673.6
576.637	661.6
577.065	692.4
577.472	667.2
577.879	651.6
578.286	671.6
578.714	664.4
579.121	656.2
579.528	663
579.935	675
580.364	655.6
580.771	645.8
581.178	649.8
581.585	673.2
582.014	667.4
582.421	653.4
582.829	653.4
583.236	678
583.644	660.8
584.073	657.8
584.481	659.4
584.889	663.2
585.296	670.4
585.726	666
586.134	658.8
586.542	655.8
586.95	693.2
587.358	655.4
587.787	657
588.196	645.2
588.604	656
589.012	655
589.421	649
589.851	654.8
590.259	671.2
590.668	654.6
591.076	703
591.485	650.4
591.894	660.8
592.324	673.2
592.733	671.6
593.142	638.8
593.551	652.6
593.96	657.4
594.369	650.8
594.8	646.2
595.209	663.8
595.618	640.2
596.028	656.2
596.437	648.2
596.847	659.8
597.256	657.8
597.687	662.4
598.097	653.8
598.507	655.4
598.917	663.4
599.327	666.6
599.736	660
600.146	673.6
600.556	666.2
600.988	668.2
601.398	659.8
601.808	668.8
602.219	645.2
602.629	660.8
603.039	667.4
603.45	703.6
603.86	658.6
604.271	676.4
604.703	659.8
605.114	661.6
605.525	659.6
605.935	665
606.346	690.2
606.757	667
607.168	666.2
607.579	649.2
607.99	682.8
608.402	655.2
608.813	665.8
609.224	657
609.636	659.4
610.047	649
610.48	667
610.892	669.8
611.303	682.2
611.715	657.2
612.127	656.2
612.539	658
612.95	664
613.362	652.4
613.774	652.8
614.186	653.6
614.599	661.8
615.011	672.8
615.423	658.8
615.835	651.6
616.248	645.6
616.66	655
617.073	645.8
617.485	652
617.898	672.2
618.311	655.8
618.723	660.6
619.136	697.4
619.549	670.8
619.962	687.2
620.375	654.8
620.788	666
621.201	659.8
621.614	660.2
622.028	661.6
622.441	663.8
622.854	671.4
623.268	650.8
623.681	668
624.095	663.8
624.509	673.4
624.922	671.8
625.336	651.4
625.728	665.4
626.142	670.4
626.556	677.4
626.97	667.8
627.384	661.6
627.799	656
628.213	669.6
628.627	657.8
629.041	649.2
629.456	656.4
629.87	658.4
630.285	671.6
630.699	675.6
631.093	661.8
631.507	664.6
631.922	667.8
632.337	674.4
632.752	653.4
633.167	659.6
633.582	653
633.997	659.4
634.412	660.2
634.806	661.8
635.221	645.2
635.637	669.4
636.052	649.6
636.468	653.8
636.883	684.2
637.299	666.2
637.715	642.6
638.109	655.6
638.525	646.6
638.941	665.6
639.357	664
639.773	675.4
640.189	654
640.584	663
641	662
641.416	649.2
641.832	651.2
642.249	658.4
642.665	653.8
643.06	669
643.477	674
643.894	645.4
644.31	661
644.727	659.2
645.123	658.8
645.54	643.4
645.957	656
646.374	677
646.77	662.2
647.187	683.8
647.604	661
648.021	645.6
648.439	653
648.835	666.4
649.252	666.8
649.67	655.6
650.088	656
650.484	662
650.902	668.8
651.32	662.4
651.738	652.8
652.134	651.6
652.552	680
652.971	663.4
653.389	655.6
653.786	669.4
654.204	678
654.622	643.2
655.019	655.6
655.438	661.6
655.857	654.2
656.275	656.6
656.673	650
657.091	739.8
657.51	660
657.908	663.6
658.327	672
658.746	644
659.144	664
659.563	668.8
659.982	660.4
660.38	647.8
660.8	663.2
661.219	673
661.617	665.4
662.037	661.2
662.457	666.6
662.855	643
663.275	694.8
663.695	665
664.094	653.8
664.514	664.8
664.934	651.8
665.333	666.4
665.753	647.2
666.152	653.6
666.572	654
666.993	672.2
667.392	654.6
667.812	655.8
668.212	657.4
668.632	675.4
669.053	657.8
669.453	658
669.874	664
670.273	661
670.694	646.8
671.116	676.6
671.515	673.2
671.937	661.8
672.337	651.8
672.758	652
673.158	668.8
673.58	652.6
673.98	657.4
674.402	671.4
674.824	655.2
675.224	657
675.646	643
676.047	650.8
676.469	658.6
676.869	669.2
677.292	661.4
677.693	651.6
678.115	647.6
678.516	665.4
678.939	653.8
679.34	649.6
679.762	666.8
680.164	665.2
680.586	653.8
680.988	654.4
681.411	685.2
681.812	658.2
682.236	645.8
682.637	649.4
683.061	652.6
683.462	659.4
683.864	653
684.288	658
684.69	639.2
685.114	665.8
685.516	661.6
685.94	642.6
686.342	661.2
686.766	649
687.168	649.2
687.571	671.4
687.995	658.4
688.398	651.8
688.822	653.6
689.225	673.6
689.628	688
690.052	656.2
690.456	670.2
690.88	661.4
691.284	643
691.687	673
692.112	641.6
692.515	643.4
692.919	656.4
693.344	659.8
693.747	654.4
694.173	657.8
694.577	667.8
694.98	654.6
695.406	649.4
695.81	651.6
696.214	662.8
696.64	654.2
697.044	664.4
697.448	664.6
697.874	654.4
698.279	663.2
698.684	647.4
699.11	641.8
699.514	659.6
699.919	649.2
700.324	650.8
700.75	655.2
701.156	659.2
701.561	677
701.987	671
702.393	663.4
702.798	675.8
703.203	655.2
703.63	652.8
704.036	654.6
704.442	653
704.847	639.8
705.274	646.8
705.68	668
706.086	673.4
706.492	643.4
706.92	661.8
707.326	661
707.732	663.8
708.139	641.2
708.545	647.2
708.973	656.6
709.38	662.6
709.786	646.6
710.193	671.8
710.6	657.8
711.028	648
711.435	662.2
711.842	658.2
712.249	653.8
712.656	653.8
713.064	656.8
713.492	642.4
713.9	648.6
714.307	666.8
714.715	651
715.123	667.8
715.53	658.8
715.938	669.4
716.367	666.6
716.775	653
717.184	644.6
717.592	660.2
718	664
718.408	694.4
718.816	701.6
719.225	657.6
719.633	660.2
720.042	644
720.472	646.6
720.881	674.6
721.29	660.8
721.699	643
722.108	660.2
722.517	659
722.926	657.4
723.335	669.8
723.744	659.4
724.154	660.6
724.563	660.4
724.973	658.4
725.382	653.4
725.792	653.2
726.202	656.6
726.612	680.4
727.022	658.4
727.432	653.2
779.813	646.6
780.223	694
780.634	647.6
781.044	653.4
781.454	654.8
781.865	663.8
782.276	653.8
782.686	663.6
783.097	654.8
783.508	656
783.919	663.4
784.33	668.2
784.741	669.2
785.152	646.6
785.563	642.8
785.974	648
786.386	665.4
786.776	650.4
787.188	654
787.599	644.4
788.011	664.2
788.423	660.2
788.835	644.4
789.247	636.4
789.659	655.4
790.071	649.8
790.483	698.6
790.874	652.2
791.286	668.6
791.699	647.6
792.111	654.4
792.524	653.6
792.937	648.8
793.349	646.2
793.741	652.8
794.154	646.6
794.567	671.4
794.98	648.2
795.393	630.6
795.785	679
796.198	650.8
796.612	660.6
797.026	646.2
797.439	638.8
797.831	650
798.245	653.6
798.659	646
799.073	652.4
799.487	637.2
799.88	659.4
800.294	660.8
800.708	650.2
801.123	657
801.516	673.2
801.93	641.6
802.345	639.8
802.76	654.4
803.153	666.2
803.568	665.6
803.983	663.6
804.377	660
804.792	638.2
805.207	641
805.601	661.8
806.016	697.8
806.432	643.6
806.826	693
807.242	662.6
807.658	654.6
808.052	649
808.468	655.8
808.884	653
809.279	648.4
809.695	667
810.111	673.8
810.506	648.8
810.922	669.8
811.339	648.6
811.734	660.2
812.151	650
812.546	645.4
812.963	646
813.38	651.6
813.776	647.8
814.193	674.4
814.589	644.4
815.006	642.8
815.402	643.6
815.82	646.4
816.237	658.4
816.633	663.8
817.051	645.8
817.448	652.6
817.866	644.4
818.262	671.6
818.68	640
819.077	652.6
819.495	651.6
819.892	695
820.311	645.6
820.708	640
821.127	647.2
821.524	667.2
821.943	657.6
822.34	670
822.759	653.2
823.157	647.8
823.576	666.2
823.974	655.4
824.393	788.8
824.791	633.2
825.189	646.6
825.609	649.8
826.007	654.8
826.427	640
826.826	644.4
827.246	650.4
827.644	642.4
828.043	661.8
828.463	648.2
828.862	655.8
829.261	659.6
829.682	636.2
830.081	655.6
830.502	643.4
830.901	668
831.301	648.8
831.722	636.6
832.121	656.4
832.521	644.6
832.943	652.2
833.342	665.2
833.742	644.6
834.164	653.2
834.564	639.6
834.965	647.8
835.386	647.4
835.787	651.2
836.188	657.2
836.588	653.4
837.01	648.2
837.411	645.6
837.812	663.4
838.213	660.6
838.636	649
839.037	730.4
839.438	651.6
839.84	649
840.263	669.8
840.664	659
841.066	653.6
841.468	661
841.891	646.6
842.293	653.6
842.695	660.8
843.098	658.4
843.5	645.2
843.902	649.8
844.326	658.6
844.729	644.4
845.131	666.2
845.534	649.6
845.937	660.4
846.34	671.4
846.764	650.6
847.167	646
847.571	656.8
847.974	659.4
848.377	640.6
848.781	713.6
849.184	660.8
849.588	647.4
849.992	645.6
850.396	645.6
850.821	660
851.225	658.4
851.63	641.4
852.034	667
852.438	656.6
852.843	801.2
853.247	642.4
853.652	646
854.057	665.8
854.462	657
854.867	657.2
855.272	683.4
855.677	657.2
856.082	647
856.487	633.6
